%H field first colomn	Temp row	DeltaTad array	Corrected for demagnetization using the Anaroni demagnetization factor	 NaN means no data	 Interpolated from 6 field measurement
0.0000		  255			  256			  257			  258			  259			  260			  261			  262			  263			  264			  265			  266			  267			  268			  269			  270			  271			  272			  273			  274			  275			  276			  277			  278			  279			  280			  281			  282			  283			  284			  285			  286			  287			  288			  289			  290			  291			  292			  293			  294			  295			  296			  297			  298			  299			  300			  301			  302			  303			  304			  305			  306			  307			  308			  
 0.000		  0.0000		  0.0000		  0.0000		  0.0000		  0.0000		  0.0000		  0.0000		  0.0000		  0.0000		  0.0000		  0.0000		  0.0000		  0.0000		  0.0000		  0.0000		  0.0000		  0.0000		  0.0000		  0.0000		  0.0000		  0.0000		  0.0000		  0.0000		  0.0000		  0.0000		  0.0000		  0.0000		  0.0000		  0.0000		  0.0000		  0.0000		  0.0000		  0.0000		  0.0000		  0.0000		  0.0000		  0.0000		  0.0000		  0.0000		  0.0000		  0.0000		  0.0000		  0.0000		  0.0000		  0.0000		  0.0000		  0.0000		  0.0000		  0.0000		  0.0000		  0.0000		  0.0000		  0.0000		  0.0000		
 0.010		  0.0033		  0.0046		  0.0043		  0.0045		  0.0047		  0.0051		  0.0047		  0.0050		  0.0052		  0.0051		  0.0054		  0.0142		  0.0108		  0.0103		  0.0113		  0.0112		  0.0101		  0.0107		  0.0117		  0.0129		  0.0133		  0.0130		  0.0147		  0.0157		  0.0160		  0.0180		  0.0191		  0.0203		  0.0218		  0.0246		  0.0265		  0.0277		  0.0303		  0.0314		  0.0317		  0.0300		  0.0263		  0.0218		  0.0174		  0.0139		  0.0111		  0.0088		  0.0072		  0.0059		  0.0050		  0.0046		  0.0052		  0.0045		  0.0038		  0.0033		  0.0029		  0.0026		  0.0023		  0.0022		
 0.020		  0.0065		  0.0092		  0.0087		  0.0090		  0.0093		  0.0101		  0.0095		  0.0100		  0.0103		  0.0102		  0.0109		  0.0283		  0.0216		  0.0205		  0.0226		  0.0225		  0.0203		  0.0215		  0.0235		  0.0259		  0.0265		  0.0259		  0.0294		  0.0315		  0.0319		  0.0359		  0.0382		  0.0405		  0.0435		  0.0492		  0.0530		  0.0555		  0.0606		  0.0627		  0.0634		  0.0601		  0.0527		  0.0437		  0.0349		  0.0277		  0.0223		  0.0175		  0.0144		  0.0118		  0.0100		  0.0092		  0.0103		  0.0091		  0.0077		  0.0066		  0.0058		  0.0051		  0.0045		  0.0045		
 0.030		  0.0098		  0.0138		  0.0130		  0.0135		  0.0140		  0.0152		  0.0142		  0.0150		  0.0155		  0.0152		  0.0163		  0.0425		  0.0324		  0.0308		  0.0339		  0.0337		  0.0304		  0.0322		  0.0352		  0.0388		  0.0398		  0.0389		  0.0441		  0.0472		  0.0479		  0.0539		  0.0572		  0.0608		  0.0653		  0.0739		  0.0796		  0.0832		  0.0910		  0.0941		  0.0951		  0.0901		  0.0790		  0.0655		  0.0523		  0.0416		  0.0334		  0.0263		  0.0215		  0.0178		  0.0149		  0.0138		  0.0155		  0.0136		  0.0115		  0.0099		  0.0088		  0.0077		  0.0068		  0.0067		
 0.040		  0.0130		  0.0184		  0.0174		  0.0180		  0.0187		  0.0203		  0.0190		  0.0199		  0.0206		  0.0203		  0.0218		  0.0566		  0.0432		  0.0410		  0.0452		  0.0449		  0.0405		  0.0429		  0.0470		  0.0518		  0.0530		  0.0519		  0.0587		  0.0630		  0.0639		  0.0718		  0.0763		  0.0811		  0.0870		  0.0985		  0.1061		  0.1109		  0.1213		  0.1254		  0.1268		  0.1201		  0.1053		  0.0873		  0.0697		  0.0555		  0.0445		  0.0350		  0.0287		  0.0237		  0.0199		  0.0184		  0.0206		  0.0182		  0.0154		  0.0132		  0.0117		  0.0102		  0.0091		  0.0090		
 0.050		  0.0163		  0.0230		  0.0217		  0.0225		  0.0233		  0.0254		  0.0237		  0.0249		  0.0258		  0.0254		  0.0272		  0.0708		  0.0540		  0.0513		  0.0565		  0.0562		  0.0507		  0.0536		  0.0587		  0.0647		  0.0663		  0.0649		  0.0734		  0.0787		  0.0798		  0.0898		  0.0954		  0.1013		  0.1088		  0.1231		  0.1326		  0.1387		  0.1516		  0.1568		  0.1585		  0.1501		  0.1317		  0.1092		  0.0871		  0.0693		  0.0556		  0.0438		  0.0359		  0.0296		  0.0249		  0.0230		  0.0258		  0.0227		  0.0192		  0.0165		  0.0146		  0.0128		  0.0114		  0.0112		
 0.060		  0.0195		  0.0275		  0.0260		  0.0270		  0.0280		  0.0304		  0.0285		  0.0299		  0.0310		  0.0305		  0.0327		  0.0849		  0.0648		  0.0615		  0.0677		  0.0674		  0.0608		  0.0644		  0.0704		  0.0777		  0.0795		  0.0778		  0.0881		  0.0945		  0.0958		  0.1078		  0.1145		  0.1216		  0.1306		  0.1477		  0.1591		  0.1664		  0.1819		  0.1881		  0.1902		  0.1802		  0.1580		  0.1310		  0.1046		  0.0832		  0.0668		  0.0526		  0.0431		  0.0355		  0.0299		  0.0276		  0.0309		  0.0273		  0.0231		  0.0197		  0.0175		  0.0153		  0.0136		  0.0134		
 0.070		  0.0228		  0.0321		  0.0304		  0.0315		  0.0327		  0.0355		  0.0332		  0.0349		  0.0361		  0.0355		  0.0381		  0.0991		  0.0756		  0.0718		  0.0790		  0.0786		  0.0709		  0.0751		  0.0822		  0.0906		  0.0928		  0.0908		  0.1028		  0.1102		  0.1118		  0.1257		  0.1336		  0.1419		  0.1523		  0.1724		  0.1857		  0.1942		  0.2122		  0.2195		  0.2219		  0.2102		  0.1843		  0.1529		  0.1220		  0.0971		  0.0779		  0.0613		  0.0502		  0.0415		  0.0349		  0.0322		  0.0361		  0.0318		  0.0269		  0.0230		  0.0205		  0.0179		  0.0159		  0.0157		
 0.080		  0.0260		  0.0367		  0.0347		  0.0360		  0.0373		  0.0406		  0.0380		  0.0399		  0.0413		  0.0406		  0.0436		  0.1132		  0.0864		  0.0820		  0.0903		  0.0899		  0.0810		  0.0858		  0.0939		  0.1035		  0.1060		  0.1038		  0.1175		  0.1260		  0.1277		  0.1437		  0.1526		  0.1621		  0.1741		  0.1970		  0.2122		  0.2219		  0.2425		  0.2508		  0.2536		  0.2402		  0.2107		  0.1747		  0.1394		  0.1109		  0.0890		  0.0701		  0.0574		  0.0474		  0.0398		  0.0368		  0.0412		  0.0364		  0.0308		  0.0263		  0.0234		  0.0204		  0.0182		  0.0179		
 0.090		  0.0293		  0.0413		  0.0391		  0.0405		  0.0420		  0.0456		  0.0427		  0.0449		  0.0464		  0.0457		  0.0490		  0.1274		  0.0971		  0.0923		  0.1016		  0.1011		  0.0912		  0.0966		  0.1057		  0.1165		  0.1193		  0.1167		  0.1322		  0.1417		  0.1437		  0.1617		  0.1717		  0.1824		  0.1959		  0.2216		  0.2387		  0.2496		  0.2729		  0.2822		  0.2853		  0.2702		  0.2370		  0.1965		  0.1568		  0.1248		  0.1001		  0.0788		  0.0646		  0.0533		  0.0448		  0.0413		  0.0464		  0.0409		  0.0346		  0.0296		  0.0263		  0.0230		  0.0204		  0.0202		
 0.100		  0.0325		  0.0459		  0.0434		  0.0449		  0.0466		  0.0507		  0.0475		  0.0499		  0.0516		  0.0508		  0.0544		  0.1408		  0.1079		  0.1025		  0.1129		  0.1123		  0.1013		  0.1073		  0.1174		  0.1294		  0.1325		  0.1297		  0.1469		  0.1575		  0.1597		  0.1796		  0.1908		  0.2027		  0.2176		  0.2462		  0.2652		  0.2774		  0.3032		  0.3135		  0.3170		  0.3003		  0.2633		  0.2184		  0.1743		  0.1387		  0.1113		  0.0876		  0.0718		  0.0592		  0.0498		  0.0459		  0.0515		  0.0454		  0.0385		  0.0329		  0.0292		  0.0255		  0.0227		  0.0224		
 0.110		  0.0358		  0.0505		  0.0478		  0.0494		  0.0513		  0.0558		  0.0522		  0.0548		  0.0568		  0.0558		  0.0599		  0.1429		  0.1130		  0.1092		  0.1207		  0.1211		  0.1105		  0.1176		  0.1291		  0.1424		  0.1458		  0.1427		  0.1616		  0.1732		  0.1757		  0.1976		  0.2099		  0.2229		  0.2394		  0.2709		  0.2918		  0.3051		  0.3335		  0.3449		  0.3487		  0.3303		  0.2897		  0.2402		  0.1917		  0.1525		  0.1224		  0.0964		  0.0789		  0.0651		  0.0548		  0.0505		  0.0567		  0.0500		  0.0423		  0.0362		  0.0321		  0.0281		  0.0250		  0.0246		
 0.120		  0.0390		  0.0551		  0.0521		  0.0539		  0.0560		  0.0608		  0.0570		  0.0598		  0.0619		  0.0609		  0.0653		  0.1449		  0.1175		  0.1148		  0.1263		  0.1271		  0.1180		  0.1253		  0.1368		  0.1516		  0.1564		  0.1547		  0.1761		  0.1890		  0.1916		  0.2155		  0.2290		  0.2432		  0.2611		  0.2955		  0.3183		  0.3328		  0.3638		  0.3762		  0.3804		  0.3603		  0.3160		  0.2620		  0.2091		  0.1664		  0.1335		  0.1051		  0.0861		  0.0711		  0.0598		  0.0551		  0.0618		  0.0545		  0.0461		  0.0395		  0.0351		  0.0306		  0.0273		  0.0269		
 0.130		  0.0423		  0.0597		  0.0564		  0.0584		  0.0606		  0.0659		  0.0617		  0.0648		  0.0671		  0.0660		  0.0708		  0.1470		  0.1221		  0.1204		  0.1319		  0.1331		  0.1254		  0.1329		  0.1444		  0.1596		  0.1648		  0.1643		  0.1859		  0.2011		  0.2060		  0.2332		  0.2480		  0.2635		  0.2829		  0.3201		  0.3448		  0.3606		  0.3941		  0.4076		  0.4121		  0.3903		  0.3423		  0.2839		  0.2266		  0.1803		  0.1446		  0.1139		  0.0933		  0.0770		  0.0647		  0.0597		  0.0670		  0.0591		  0.0500		  0.0428		  0.0380		  0.0332		  0.0295		  0.0291		
 0.140		  0.0455		  0.0643		  0.0608		  0.0629		  0.0653		  0.0710		  0.0665		  0.0698		  0.0723		  0.0711		  0.0762		  0.1491		  0.1267		  0.1259		  0.1375		  0.1391		  0.1328		  0.1406		  0.1519		  0.1676		  0.1731		  0.1739		  0.1957		  0.2119		  0.2180		  0.2457		  0.2637		  0.2829		  0.3047		  0.3447		  0.3713		  0.3883		  0.4244		  0.4389		  0.4438		  0.4204		  0.3686		  0.3057		  0.2440		  0.1941		  0.1558		  0.1226		  0.1005		  0.0829		  0.0697		  0.0643		  0.0721		  0.0636		  0.0538		  0.0461		  0.0409		  0.0357		  0.0318		  0.0314		
 0.150		  0.0488		  0.0689		  0.0651		  0.0674		  0.0700		  0.0761		  0.0712		  0.0748		  0.0774		  0.0761		  0.0817		  0.1511		  0.1313		  0.1315		  0.1432		  0.1450		  0.1402		  0.1483		  0.1594		  0.1756		  0.1814		  0.1836		  0.2055		  0.2226		  0.2300		  0.2583		  0.2773		  0.2978		  0.3225		  0.3686		  0.3979		  0.4160		  0.4548		  0.4703		  0.4755		  0.4504		  0.3950		  0.3275		  0.2614		  0.2080		  0.1669		  0.1314		  0.1076		  0.0888		  0.0747		  0.0689		  0.0773		  0.0682		  0.0577		  0.0494		  0.0438		  0.0383		  0.0341		  0.0336		
 0.160		  0.0520		  0.0735		  0.0695		  0.0719		  0.0746		  0.0811		  0.0760		  0.0798		  0.0826		  0.0812		  0.0871		  0.1532		  0.1359		  0.1371		  0.1488		  0.1510		  0.1476		  0.1560		  0.1669		  0.1835		  0.1898		  0.1932		  0.2153		  0.2334		  0.2420		  0.2708		  0.2910		  0.3128		  0.3382		  0.3852		  0.4198		  0.4438		  0.4851		  0.5016		  0.5072		  0.4804		  0.4213		  0.3494		  0.2788		  0.2219		  0.1780		  0.1402		  0.1148		  0.0947		  0.0797		  0.0735		  0.0825		  0.0727		  0.0615		  0.0527		  0.0468		  0.0408		  0.0363		  0.0358		
 0.170		  0.0553		  0.0780		  0.0738		  0.0764		  0.0793		  0.0862		  0.0807		  0.0847		  0.0877		  0.0863		  0.0925		  0.1552		  0.1404		  0.1427		  0.1544		  0.1570		  0.1550		  0.1637		  0.1745		  0.1915		  0.1981		  0.2028		  0.2251		  0.2441		  0.2540		  0.2833		  0.3046		  0.3277		  0.3539		  0.4018		  0.4374		  0.4660		  0.5154		  0.5330		  0.5389		  0.5104		  0.4476		  0.3712		  0.2963		  0.2357		  0.1891		  0.1489		  0.1220		  0.1007		  0.0847		  0.0781		  0.0876		  0.0773		  0.0654		  0.0559		  0.0497		  0.0434		  0.0386		  0.0381		
 0.180		  0.0585		  0.0826		  0.0781		  0.0809		  0.0840		  0.0913		  0.0855		  0.0897		  0.0929		  0.0914		  0.0980		  0.1573		  0.1450		  0.1483		  0.1600		  0.1630		  0.1624		  0.1714		  0.1820		  0.1995		  0.2064		  0.2124		  0.2349		  0.2549		  0.2660		  0.2958		  0.3182		  0.3426		  0.3695		  0.4184		  0.4551		  0.4859		  0.5360		  0.5629		  0.5706		  0.5405		  0.4740		  0.3931		  0.3137		  0.2496		  0.2003		  0.1577		  0.1292		  0.1066		  0.0897		  0.0827		  0.0928		  0.0818		  0.0692		  0.0592		  0.0526		  0.0459		  0.0409		  0.0403		
 0.190		  0.0618		  0.0872		  0.0825		  0.0854		  0.0886		  0.0963		  0.0902		  0.0947		  0.0981		  0.0964		  0.1034		  0.1594		  0.1496		  0.1539		  0.1656		  0.1690		  0.1698		  0.1791		  0.1895		  0.2075		  0.2148		  0.2221		  0.2447		  0.2656		  0.2780		  0.3084		  0.3318		  0.3575		  0.3852		  0.4350		  0.4728		  0.5058		  0.5563		  0.5848		  0.5983		  0.5705		  0.5003		  0.4149		  0.3311		  0.2635		  0.2114		  0.1664		  0.1363		  0.1125		  0.0946		  0.0873		  0.0979		  0.0864		  0.0731		  0.0625		  0.0555		  0.0485		  0.0432		  0.0426		
 0.200		  0.0650		  0.0918		  0.0868		  0.0899		  0.0933		  0.1014		  0.0950		  0.0997		  0.1032		  0.1015		  0.1089		  0.1614		  0.1542		  0.1595		  0.1712		  0.1750		  0.1773		  0.1868		  0.1970		  0.2155		  0.2231		  0.2317		  0.2545		  0.2764		  0.2900		  0.3209		  0.3455		  0.3725		  0.4009		  0.4516		  0.4904		  0.5257		  0.5767		  0.6067		  0.6202		  0.5953		  0.5266		  0.4367		  0.3486		  0.2773		  0.2225		  0.1752		  0.1435		  0.1184		  0.0996		  0.0919		  0.1031		  0.0909		  0.0769		  0.0658		  0.0584		  0.0510		  0.0454		  0.0448		
 0.210		  0.0683		  0.0964		  0.0912		  0.0944		  0.0980		  0.1065		  0.0997		  0.1047		  0.1084		  0.1066		  0.1143		  0.1635		  0.1587		  0.1651		  0.1769		  0.1809		  0.1847		  0.1945		  0.2046		  0.2235		  0.2314		  0.2413		  0.2643		  0.2871		  0.3020		  0.3334		  0.3591		  0.3874		  0.4165		  0.4682		  0.5081		  0.5456		  0.5970		  0.6285		  0.6421		  0.6168		  0.5485		  0.4582		  0.3660		  0.2912		  0.2336		  0.1839		  0.1507		  0.1244		  0.1046		  0.0965		  0.1082		  0.0954		  0.0808		  0.0691		  0.0614		  0.0536		  0.0477		  0.0470		
 0.220		  0.0715		  0.1010		  0.0955		  0.0989		  0.1026		  0.1116		  0.1045		  0.1097		  0.1135		  0.1117		  0.1198		  0.1655		  0.1633		  0.1707		  0.1825		  0.1869		  0.1921		  0.2022		  0.2121		  0.2315		  0.2398		  0.2509		  0.2741		  0.2979		  0.3140		  0.3459		  0.3727		  0.4023		  0.4322		  0.4848		  0.5258		  0.5655		  0.6173		  0.6504		  0.6640		  0.6383		  0.5697		  0.4784		  0.3840		  0.3053		  0.2448		  0.1927		  0.1579		  0.1303		  0.1096		  0.1011		  0.1134		  0.1000		  0.0846		  0.0724		  0.0643		  0.0561		  0.0500		  0.0493		
 0.230		  0.0748		  0.1056		  0.0998		  0.1034		  0.1073		  0.1166		  0.1092		  0.1147		  0.1187		  0.1167		  0.1252		  0.1676		  0.1679		  0.1763		  0.1881		  0.1929		  0.1995		  0.2099		  0.2196		  0.2395		  0.2481		  0.2606		  0.2839		  0.3086		  0.3260		  0.3584		  0.3864		  0.4173		  0.4478		  0.5014		  0.5434		  0.5854		  0.6377		  0.6723		  0.6858		  0.6598		  0.5910		  0.4985		  0.4024		  0.3221		  0.2587		  0.2032		  0.1653		  0.1362		  0.1146		  0.1057		  0.1185		  0.1045		  0.0885		  0.0757		  0.0672		  0.0587		  0.0522		  0.0515		
 0.240		  0.0780		  0.1102		  0.1042		  0.1079		  0.1119		  0.1217		  0.1140		  0.1196		  0.1239		  0.1218		  0.1307		  0.1697		  0.1725		  0.1819		  0.1937		  0.1989		  0.2069		  0.2176		  0.2271		  0.2475		  0.2565		  0.2702		  0.2937		  0.3194		  0.3380		  0.3710		  0.4000		  0.4322		  0.4635		  0.5180		  0.5611		  0.6054		  0.6580		  0.6942		  0.7077		  0.6813		  0.6122		  0.5187		  0.4208		  0.3388		  0.2739		  0.2169		  0.1772		  0.1456		  0.1219		  0.1115		  0.1237		  0.1091		  0.0923		  0.0790		  0.0701		  0.0613		  0.0545		  0.0538		
 0.250		  0.0813		  0.1148		  0.1085		  0.1124		  0.1166		  0.1268		  0.1187		  0.1246		  0.1290		  0.1269		  0.1361		  0.1717		  0.1771		  0.1875		  0.1993		  0.2049		  0.2143		  0.2253		  0.2347		  0.2555		  0.2648		  0.2798		  0.3036		  0.3301		  0.3501		  0.3835		  0.4136		  0.4471		  0.4792		  0.5346		  0.5787		  0.6253		  0.6783		  0.7161		  0.7296		  0.7028		  0.6334		  0.5388		  0.4391		  0.3555		  0.2891		  0.2305		  0.1892		  0.1558		  0.1307		  0.1187		  0.1288		  0.1136		  0.0961		  0.0823		  0.0731		  0.0638		  0.0568		  0.0560		
 0.260		  0.0845		  0.1194		  0.1129		  0.1169		  0.1213		  0.1318		  0.1235		  0.1296		  0.1342		  0.1320		  0.1415		  0.1738		  0.1816		  0.1931		  0.2049		  0.2108		  0.2217		  0.2330		  0.2422		  0.2634		  0.2731		  0.2894		  0.3134		  0.3409		  0.3621		  0.3960		  0.4273		  0.4621		  0.4948		  0.5512		  0.5964		  0.6452		  0.6986		  0.7380		  0.7514		  0.7243		  0.6547		  0.5590		  0.4575		  0.3723		  0.3042		  0.2442		  0.2011		  0.1660		  0.1395		  0.1260		  0.1340		  0.1182		  0.1000		  0.0856		  0.0760		  0.0664		  0.0591		  0.0582		
 0.270		  0.0878		  0.1240		  0.1172		  0.1214		  0.1259		  0.1369		  0.1282		  0.1346		  0.1393		  0.1370		  0.1470		  0.1758		  0.1862		  0.1987		  0.2106		  0.2168		  0.2291		  0.2407		  0.2497		  0.2714		  0.2815		  0.2991		  0.3232		  0.3516		  0.3741		  0.4085		  0.4409		  0.4770		  0.5105		  0.5678		  0.6141		  0.6651		  0.7190		  0.7598		  0.7733		  0.7458		  0.6759		  0.5791		  0.4759		  0.3890		  0.3194		  0.2579		  0.2130		  0.1761		  0.1482		  0.1332		  0.1391		  0.1227		  0.1038		  0.0889		  0.0789		  0.0689		  0.0613		  0.0605		
 0.280		  0.0910		  0.1285		  0.1215		  0.1259		  0.1306		  0.1420		  0.1330		  0.1396		  0.1445		  0.1421		  0.1524		  0.1779		  0.1908		  0.2043		  0.2162		  0.2228		  0.2366		  0.2484		  0.2572		  0.2794		  0.2898		  0.3087		  0.3330		  0.3624		  0.3861		  0.4210		  0.4545		  0.4919		  0.5262		  0.5844		  0.6317		  0.6850		  0.7393		  0.7817		  0.7952		  0.7672		  0.6971		  0.5993		  0.4943		  0.4058		  0.3346		  0.2716		  0.2249		  0.1863		  0.1570		  0.1405		  0.1443		  0.1273		  0.1077		  0.0921		  0.0818		  0.0715		  0.0636		  0.0627		
 0.290		  0.0943		  0.1331		  0.1259		  0.1303		  0.1353		  0.1470		  0.1377		  0.1446		  0.1497		  0.1472		  0.1579		  0.1800		  0.1954		  0.2099		  0.2218		  0.2288		  0.2440		  0.2561		  0.2648		  0.2874		  0.2981		  0.3183		  0.3428		  0.3731		  0.3981		  0.4336		  0.4682		  0.5069		  0.5418		  0.6010		  0.6494		  0.7049		  0.7596		  0.8036		  0.8170		  0.7887		  0.7184		  0.6194		  0.5127		  0.4225		  0.3498		  0.2852		  0.2369		  0.1964		  0.1658		  0.1477		  0.1494		  0.1318		  0.1115		  0.0954		  0.0847		  0.0740		  0.0659		  0.0650		
 0.300		  0.0975		  0.1377		  0.1302		  0.1348		  0.1399		  0.1521		  0.1425		  0.1496		  0.1548		  0.1523		  0.1633		  0.1820		  0.2000		  0.2155		  0.2274		  0.2348		  0.2514		  0.2638		  0.2723		  0.2954		  0.3065		  0.3279		  0.3526		  0.3839		  0.4101		  0.4461		  0.4818		  0.5218		  0.5575		  0.6176		  0.6671		  0.7248		  0.7799		  0.8255		  0.8389		  0.8102		  0.7396		  0.6396		  0.5311		  0.4393		  0.3649		  0.2989		  0.2488		  0.2066		  0.1745		  0.1549		  0.1546		  0.1363		  0.1154		  0.0987		  0.0877		  0.0766		  0.0681		  0.0672		
 0.310		  0.1008		  0.1423		  0.1346		  0.1393		  0.1446		  0.1572		  0.1472		  0.1545		  0.1600		  0.1573		  0.1688		  0.1841		  0.2045		  0.2211		  0.2330		  0.2408		  0.2588		  0.2715		  0.2798		  0.3034		  0.3148		  0.3376		  0.3624		  0.3946		  0.4221		  0.4586		  0.4954		  0.5367		  0.5732		  0.6342		  0.6847		  0.7447		  0.8003		  0.8474		  0.8608		  0.8317		  0.7608		  0.6597		  0.5494		  0.4560		  0.3801		  0.3126		  0.2607		  0.2168		  0.1833		  0.1622		  0.1598		  0.1409		  0.1192		  0.1020		  0.0906		  0.0791		  0.0704		  0.0694		
 0.320		  0.1040		  0.1469		  0.1389		  0.1438		  0.1493		  0.1623		  0.1520		  0.1595		  0.1651		  0.1624		  0.1742		  0.1861		  0.2091		  0.2266		  0.2387		  0.2467		  0.2662		  0.2792		  0.2873		  0.3114		  0.3231		  0.3472		  0.3722		  0.4054		  0.4341		  0.4711		  0.5091		  0.5516		  0.5888		  0.6508		  0.7024		  0.7646		  0.8206		  0.8693		  0.8826		  0.8532		  0.7821		  0.6799		  0.5678		  0.4728		  0.3953		  0.3263		  0.2726		  0.2269		  0.1921		  0.1694		  0.1649		  0.1454		  0.1231		  0.1053		  0.0935		  0.0817		  0.0727		  0.0717		
 0.330		  0.1073		  0.1515		  0.1433		  0.1483		  0.1539		  0.1673		  0.1567		  0.1645		  0.1703		  0.1675		  0.1796		  0.1882		  0.2137		  0.2322		  0.2443		  0.2527		  0.2736		  0.2869		  0.2949		  0.3194		  0.3315		  0.3568		  0.3820		  0.4161		  0.4461		  0.4836		  0.5227		  0.5666		  0.6045		  0.6675		  0.7200		  0.7845		  0.8409		  0.8911		  0.9045		  0.8747		  0.8033		  0.7000		  0.5862		  0.4895		  0.4105		  0.3399		  0.2846		  0.2371		  0.2008		  0.1766		  0.1701		  0.1500		  0.1269		  0.1086		  0.0964		  0.0842		  0.0750		  0.0739		
 0.340		  0.1113		  0.1541		  0.1463		  0.1516		  0.1573		  0.1708		  0.1609		  0.1690		  0.1750		  0.1724		  0.1849		  0.1905		  0.2183		  0.2378		  0.2499		  0.2587		  0.2810		  0.2946		  0.3024		  0.3274		  0.3398		  0.3665		  0.3918		  0.4269		  0.4581		  0.4962		  0.5363		  0.5815		  0.6202		  0.6841		  0.7377		  0.8044		  0.8613		  0.9130		  0.9264		  0.8962		  0.8245		  0.7202		  0.6046		  0.5063		  0.4256		  0.3536		  0.2965		  0.2472		  0.2096		  0.1839		  0.1752		  0.1545		  0.1308		  0.1119		  0.0993		  0.0868		  0.0772		  0.0762		
 0.350		  0.1153		  0.1567		  0.1493		  0.1546		  0.1602		  0.1736		  0.1646		  0.1730		  0.1790		  0.1768		  0.1894		  0.1958		  0.2225		  0.2426		  0.2550		  0.2643		  0.2878		  0.3020		  0.3099		  0.3353		  0.3481		  0.3761		  0.4016		  0.4376		  0.4701		  0.5087		  0.5499		  0.5964		  0.6358		  0.7007		  0.7554		  0.8243		  0.8816		  0.9349		  0.9483		  0.9177		  0.8458		  0.7403		  0.6230		  0.5230		  0.4408		  0.3673		  0.3084		  0.2574		  0.2184		  0.1911		  0.1804		  0.1591		  0.1346		  0.1152		  0.1023		  0.0893		  0.0795		  0.0784		
 0.360		  0.1193		  0.1593		  0.1523		  0.1576		  0.1631		  0.1763		  0.1683		  0.1770		  0.1830		  0.1813		  0.1938		  0.2010		  0.2268		  0.2471		  0.2599		  0.2695		  0.2932		  0.3076		  0.3166		  0.3423		  0.3562		  0.3853		  0.4114		  0.4484		  0.4821		  0.5212		  0.5636		  0.6114		  0.6515		  0.7173		  0.7730		  0.8442		  0.9019		  0.9568		  0.9701		  0.9392		  0.8670		  0.7605		  0.6413		  0.5397		  0.4560		  0.3810		  0.3203		  0.2676		  0.2271		  0.1984		  0.1855		  0.1636		  0.1384		  0.1185		  0.1052		  0.0919		  0.0818		  0.0807		
 0.370		  0.1233		  0.1620		  0.1553		  0.1607		  0.1661		  0.1791		  0.1721		  0.1810		  0.1869		  0.1857		  0.1983		  0.2062		  0.2310		  0.2517		  0.2648		  0.2746		  0.2986		  0.3133		  0.3232		  0.3488		  0.3640		  0.3932		  0.4199		  0.4581		  0.4932		  0.5336		  0.5772		  0.6263		  0.6672		  0.7339		  0.7907		  0.8641		  0.9222		  0.9787		  0.9920		  0.9607		  0.8882		  0.7806		  0.6597		  0.5565		  0.4712		  0.3946		  0.3323		  0.2777		  0.2359		  0.2056		  0.1907		  0.1682		  0.1423		  0.1218		  0.1081		  0.0944		  0.0840		  0.0829		
 0.380		  0.1273		  0.1646		  0.1583		  0.1637		  0.1690		  0.1819		  0.1758		  0.1850		  0.1909		  0.1902		  0.2028		  0.2115		  0.2352		  0.2562		  0.2697		  0.2798		  0.3041		  0.3189		  0.3298		  0.3553		  0.3718		  0.4011		  0.4283		  0.4675		  0.5029		  0.5443		  0.5896		  0.6406		  0.6828		  0.7505		  0.8083		  0.8840		  0.9426		  1.0006		  1.0139		  0.9822		  0.9095		  0.8008		  0.6781		  0.5732		  0.4863		  0.4083		  0.3442		  0.2879		  0.2447		  0.2128		  0.1958		  0.1727		  0.1461		  0.1251		  0.1110		  0.0970		  0.0863		  0.0851		
 0.390		  0.1313		  0.1672		  0.1613		  0.1667		  0.1720		  0.1846		  0.1795		  0.1890		  0.1949		  0.1946		  0.2072		  0.2167		  0.2395		  0.2608		  0.2746		  0.2850		  0.3095		  0.3246		  0.3363		  0.3618		  0.3795		  0.4090		  0.4368		  0.4768		  0.5125		  0.5550		  0.6013		  0.6534		  0.6969		  0.7666		  0.8260		  0.9039		  0.9629		  1.0224		  1.0357		  1.0037		  0.9307		  0.8209		  0.6965		  0.5900		  0.5015		  0.4220		  0.3561		  0.2980		  0.2534		  0.2201		  0.2010		  0.1773		  0.1500		  0.1284		  0.1140		  0.0995		  0.0886		  0.0874		
 0.400		  0.1353		  0.1698		  0.1642		  0.1698		  0.1749		  0.1874		  0.1832		  0.1930		  0.1989		  0.1991		  0.2117		  0.2220		  0.2437		  0.2653		  0.2795		  0.2902		  0.3149		  0.3302		  0.3429		  0.3683		  0.3873		  0.4170		  0.4452		  0.4861		  0.5222		  0.5657		  0.6131		  0.6661		  0.7106		  0.7814		  0.8427		  0.9236		  0.9832		  1.0443		  1.0576		  1.0252		  0.9519		  0.8411		  0.7149		  0.6067		  0.5167		  0.4357		  0.3680		  0.3082		  0.2622		  0.2273		  0.2061		  0.1818		  0.1538		  0.1316		  0.1169		  0.1021		  0.0909		  0.0896		
 0.410		  0.1392		  0.1724		  0.1672		  0.1728		  0.1778		  0.1902		  0.1870		  0.1970		  0.2029		  0.2035		  0.2162		  0.2272		  0.2480		  0.2699		  0.2844		  0.2954		  0.3204		  0.3359		  0.3495		  0.3748		  0.3951		  0.4249		  0.4537		  0.4955		  0.5319		  0.5764		  0.6249		  0.6789		  0.7243		  0.7963		  0.8590		  0.9408		  1.0025		  1.0662		  1.0795		  1.0466		  0.9732		  0.8612		  0.7333		  0.6235		  0.5319		  0.4493		  0.3800		  0.3184		  0.2710		  0.2345		  0.2113		  0.1863		  0.1577		  0.1349		  0.1198		  0.1046		  0.0931		  0.0919		
 0.420		  0.1432		  0.1750		  0.1702		  0.1758		  0.1808		  0.1929		  0.1907		  0.2010		  0.2069		  0.2080		  0.2206		  0.2324		  0.2522		  0.2744		  0.2893		  0.3005		  0.3258		  0.3415		  0.3561		  0.3813		  0.4028		  0.4328		  0.4621		  0.5048		  0.5416		  0.5871		  0.6367		  0.6916		  0.7379		  0.8111		  0.8753		  0.9581		  1.0207		  1.0856		  1.1013		  1.0681		  0.9944		  0.8814		  0.7516		  0.6402		  0.5470		  0.4630		  0.3919		  0.3285		  0.2797		  0.2418		  0.2164		  0.1909		  0.1615		  0.1382		  0.1227		  0.1072		  0.0954		  0.0941		
 0.430		  0.1472		  0.1776		  0.1732		  0.1789		  0.1837		  0.1957		  0.1944		  0.2051		  0.2109		  0.2124		  0.2251		  0.2377		  0.2565		  0.2790		  0.2942		  0.3057		  0.3312		  0.3472		  0.3627		  0.3878		  0.4106		  0.4407		  0.4706		  0.5141		  0.5513		  0.5978		  0.6485		  0.7043		  0.7516		  0.8259		  0.8916		  0.9753		  1.0388		  1.1042		  1.1208		  1.0890		  1.0156		  0.9015		  0.7700		  0.6570		  0.5622		  0.4767		  0.4038		  0.3387		  0.2885		  0.2490		  0.2216		  0.1954		  0.1654		  0.1415		  0.1256		  0.1097		  0.0977		  0.0963		
 0.440		  0.1512		  0.1802		  0.1762		  0.1819		  0.1866		  0.1985		  0.1982		  0.2091		  0.2149		  0.2169		  0.2296		  0.2429		  0.2607		  0.2835		  0.2991		  0.3109		  0.3366		  0.3528		  0.3693		  0.3943		  0.4184		  0.4487		  0.4790		  0.5235		  0.5610		  0.6085		  0.6603		  0.7171		  0.7653		  0.8407		  0.9080		  0.9926		  1.0570		  1.1228		  1.1402		  1.1082		  1.0352		  0.9217		  0.7884		  0.6737		  0.5774		  0.4904		  0.4157		  0.3488		  0.2973		  0.2563		  0.2267		  0.2000		  0.1692		  0.1448		  0.1286		  0.1123		  0.0999		  0.0986		
 0.450		  0.1552		  0.1829		  0.1792		  0.1849		  0.1896		  0.2012		  0.2019		  0.2131		  0.2188		  0.2213		  0.2340		  0.2482		  0.2649		  0.2881		  0.3040		  0.3161		  0.3421		  0.3585		  0.3759		  0.4008		  0.4262		  0.4566		  0.4875		  0.5328		  0.5707		  0.6192		  0.6721		  0.7298		  0.7790		  0.8556		  0.9243		  1.0098		  1.0751		  1.1414		  1.1595		  1.1274		  1.0537		  0.9397		  0.8064		  0.6905		  0.5926		  0.5040		  0.4277		  0.3590		  0.3060		  0.2635		  0.2319		  0.2045		  0.1731		  0.1481		  0.1315		  0.1149		  0.1022		  0.1008		
 0.460		  0.1592		  0.1855		  0.1822		  0.1880		  0.1925		  0.2040		  0.2056		  0.2171		  0.2228		  0.2258		  0.2385		  0.2534		  0.2692		  0.2926		  0.3089		  0.3212		  0.3475		  0.3641		  0.3825		  0.4074		  0.4339		  0.4645		  0.4959		  0.5421		  0.5803		  0.6299		  0.6839		  0.7425		  0.7927		  0.8704		  0.9406		  1.0270		  1.0933		  1.1600		  1.1789		  1.1467		  1.0722		  0.9573		  0.8238		  0.7066		  0.6077		  0.5177		  0.4396		  0.3692		  0.3148		  0.2707		  0.2371		  0.2091		  0.1769		  0.1514		  0.1344		  0.1174		  0.1045		  0.1031		
 0.470		  0.1632		  0.1881		  0.1851		  0.1910		  0.1955		  0.2068		  0.2093		  0.2211		  0.2268		  0.2302		  0.2430		  0.2586		  0.2734		  0.2972		  0.3138		  0.3264		  0.3529		  0.3698		  0.3891		  0.4139		  0.4417		  0.4724		  0.5044		  0.5515		  0.5900		  0.6406		  0.6957		  0.7553		  0.8064		  0.8852		  0.9569		  1.0443		  1.1114		  1.1785		  1.1983		  1.1659		  1.0908		  0.9749		  0.8411		  0.7227		  0.6227		  0.5315		  0.4519		  0.3796		  0.3236		  0.2780		  0.2422		  0.2136		  0.1807		  0.1547		  0.1373		  0.1200		  0.1068		  0.1053		
 0.480		  0.1672		  0.1907		  0.1881		  0.1940		  0.1984		  0.2095		  0.2131		  0.2251		  0.2308		  0.2347		  0.2474		  0.2639		  0.2777		  0.3017		  0.3187		  0.3316		  0.3584		  0.3755		  0.3957		  0.4204		  0.4495		  0.4803		  0.5129		  0.5608		  0.5997		  0.6513		  0.7074		  0.7680		  0.8200		  0.9000		  0.9732		  1.0615		  1.1295		  1.1971		  1.2177		  1.1851		  1.1093		  0.9926		  0.8585		  0.7388		  0.6377		  0.5453		  0.4645		  0.3912		  0.3339		  0.2868		  0.2487		  0.2188		  0.1847		  0.1580		  0.1403		  0.1225		  0.1090		  0.1075		
 0.490		  0.1712		  0.1933		  0.1911		  0.1971		  0.2013		  0.2123		  0.2168		  0.2291		  0.2348		  0.2391		  0.2519		  0.2691		  0.2819		  0.3063		  0.3235		  0.3368		  0.3638		  0.3811		  0.4023		  0.4269		  0.4573		  0.4883		  0.5213		  0.5701		  0.6094		  0.6620		  0.7192		  0.7808		  0.8337		  0.9149		  0.9896		  1.0788		  1.1477		  1.2157		  1.2370		  1.2043		  1.1278		  1.0102		  0.8758		  0.7548		  0.6527		  0.5592		  0.4771		  0.4029		  0.3445		  0.2965		  0.2572		  0.2262		  0.1915		  0.1638		  0.1452		  0.1266		  0.1125		  0.1104		
 0.500		  0.1752		  0.1959		  0.1941		  0.2001		  0.2043		  0.2151		  0.2205		  0.2331		  0.2388		  0.2435		  0.2564		  0.2744		  0.2861		  0.3108		  0.3284		  0.3419		  0.3692		  0.3868		  0.4089		  0.4334		  0.4650		  0.4962		  0.5298		  0.5794		  0.6191		  0.6727		  0.7310		  0.7935		  0.8474		  0.9297		  1.0059		  1.0960		  1.1658		  1.2343		  1.2564		  1.2236		  1.1463		  1.0279		  0.8931		  0.7709		  0.6677		  0.5730		  0.4898		  0.4146		  0.3550		  0.3062		  0.2657		  0.2337		  0.1982		  0.1699		  0.1507		  0.1315		  0.1169		  0.1139		
 0.510		  0.1792		  0.1985		  0.1971		  0.2031		  0.2072		  0.2178		  0.2243		  0.2371		  0.2428		  0.2480		  0.2608		  0.2796		  0.2904		  0.3154		  0.3333		  0.3471		  0.3746		  0.3924		  0.4155		  0.4399		  0.4728		  0.5041		  0.5382		  0.5888		  0.6288		  0.6834		  0.7428		  0.8062		  0.8611		  0.9445		  1.0222		  1.1133		  1.1840		  1.2529		  1.2758		  1.2428		  1.1648		  1.0455		  0.9105		  0.7869		  0.6826		  0.5868		  0.5024		  0.4262		  0.3656		  0.3159		  0.2742		  0.2412		  0.2049		  0.1760		  0.1562		  0.1365		  0.1213		  0.1174		
 0.520		  0.1831		  0.2011		  0.2001		  0.2061		  0.2101		  0.2206		  0.2280		  0.2411		  0.2468		  0.2524		  0.2653		  0.2848		  0.2946		  0.3199		  0.3382		  0.3523		  0.3801		  0.3981		  0.4221		  0.4464		  0.4806		  0.5120		  0.5467		  0.5981		  0.6384		  0.6941		  0.7546		  0.8190		  0.8748		  0.9593		  1.0385		  1.1305		  1.2021		  1.2714		  1.2952		  1.2620		  1.1834		  1.0632		  0.9278		  0.8030		  0.6976		  0.6006		  0.5150		  0.4379		  0.3762		  0.3256		  0.2828		  0.2486		  0.2117		  0.1821		  0.1617		  0.1414		  0.1257		  0.1209		
 0.530		  0.1871		  0.2038		  0.2030		  0.2092		  0.2131		  0.2234		  0.2317		  0.2451		  0.2507		  0.2569		  0.2698		  0.2901		  0.2989		  0.3245		  0.3431		  0.3575		  0.3855		  0.4037		  0.4287		  0.4529		  0.4883		  0.5200		  0.5551		  0.6074		  0.6481		  0.7048		  0.7664		  0.8317		  0.8885		  0.9742		  1.0549		  1.1478		  1.2203		  1.2900		  1.3145		  1.2812		  1.2019		  1.0808		  0.9451		  0.8191		  0.7126		  0.6145		  0.5277		  0.4496		  0.3867		  0.3354		  0.2913		  0.2561		  0.2184		  0.1882		  0.1672		  0.1463		  0.1301		  0.1244		
 0.540		  0.1911		  0.2064		  0.2060		  0.2122		  0.2160		  0.2261		  0.2354		  0.2491		  0.2547		  0.2613		  0.2742		  0.2953		  0.3031		  0.3290		  0.3480		  0.3627		  0.3909		  0.4094		  0.4353		  0.4594		  0.4961		  0.5279		  0.5636		  0.6168		  0.6578		  0.7155		  0.7782		  0.8445		  0.9022		  0.9890		  1.0712		  1.1650		  1.2384		  1.3086		  1.3339		  1.3005		  1.2204		  1.0984		  0.9625		  0.8351		  0.7276		  0.6283		  0.5403		  0.4613		  0.3973		  0.3451		  0.2998		  0.2636		  0.2252		  0.1943		  0.1727		  0.1512		  0.1345		  0.1280		
 0.550		  0.1951		  0.2090		  0.2090		  0.2152		  0.2190		  0.2289		  0.2392		  0.2532		  0.2587		  0.2658		  0.2787		  0.3006		  0.3073		  0.3336		  0.3529		  0.3678		  0.3964		  0.4150		  0.4419		  0.4659		  0.5039		  0.5358		  0.5720		  0.6261		  0.6675		  0.7262		  0.7900		  0.8572		  0.9158		  1.0038		  1.0875		  1.1822		  1.2566		  1.3272		  1.3533		  1.3197		  1.2389		  1.1161		  0.9798		  0.8512		  0.7426		  0.6421		  0.5529		  0.4729		  0.4079		  0.3548		  0.3083		  0.2711		  0.2319		  0.2005		  0.1783		  0.1562		  0.1389		  0.1315		
 0.560		  0.1991		  0.2116		  0.2120		  0.2183		  0.2219		  0.2317		  0.2429		  0.2572		  0.2627		  0.2702		  0.2831		  0.3058		  0.3116		  0.3381		  0.3578		  0.3730		  0.4018		  0.4207		  0.4485		  0.4725		  0.5117		  0.5437		  0.5805		  0.6354		  0.6772		  0.7369		  0.8018		  0.8699		  0.9295		  1.0187		  1.1038		  1.1995		  1.2747		  1.3457		  1.3727		  1.3389		  1.2574		  1.1337		  0.9971		  0.8672		  0.7576		  0.6559		  0.5655		  0.4846		  0.4184		  0.3645		  0.3168		  0.2785		  0.2386		  0.2066		  0.1838		  0.1611		  0.1432		  0.1350		
 0.570		  0.2031		  0.2142		  0.2150		  0.2213		  0.2248		  0.2344		  0.2466		  0.2612		  0.2667		  0.2747		  0.2876		  0.3110		  0.3158		  0.3427		  0.3627		  0.3782		  0.4072		  0.4263		  0.4551		  0.4790		  0.5194		  0.5517		  0.5889		  0.6448		  0.6869		  0.7476		  0.8135		  0.8827		  0.9432		  1.0335		  1.1201		  1.2167		  1.2928		  1.3643		  1.3921		  1.3581		  1.2760		  1.1514		  1.0145		  0.8833		  0.7726		  0.6698		  0.5782		  0.4963		  0.4290		  0.3742		  0.3253		  0.2860		  0.2454		  0.2127		  0.1893		  0.1660		  0.1476		  0.1385		
 0.580		  0.2061		  0.2167		  0.2179		  0.2242		  0.2278		  0.2372		  0.2503		  0.2652		  0.2707		  0.2791		  0.2921		  0.3163		  0.3201		  0.3472		  0.3676		  0.3834		  0.4126		  0.4320		  0.4616		  0.4855		  0.5272		  0.5596		  0.5974		  0.6541		  0.6966		  0.7583		  0.8253		  0.8954		  0.9569		  1.0483		  1.1365		  1.2340		  1.3110		  1.3829		  1.4114		  1.3774		  1.2945		  1.1690		  1.0318		  0.8994		  0.7876		  0.6836		  0.5908		  0.5079		  0.4396		  0.3839		  0.3338		  0.2935		  0.2521		  0.2188		  0.1948		  0.1709		  0.1520		  0.1420		
 0.590		  0.2083		  0.2189		  0.2208		  0.2269		  0.2309		  0.2401		  0.2536		  0.2685		  0.2740		  0.2831		  0.2964		  0.3206		  0.3245		  0.3518		  0.3725		  0.3885		  0.4181		  0.4376		  0.4682		  0.4920		  0.5350		  0.5675		  0.6059		  0.6634		  0.7062		  0.7690		  0.8371		  0.9081		  0.9706		  1.0631		  1.1528		  1.2512		  1.3291		  1.4015		  1.4308		  1.3966		  1.3130		  1.1867		  1.0491		  0.9154		  0.8026		  0.6974		  0.6034		  0.5196		  0.4501		  0.3936		  0.3423		  0.3009		  0.2588		  0.2249		  0.2003		  0.1759		  0.1564		  0.1455		
 0.600		  0.2105		  0.2212		  0.2237		  0.2295		  0.2340		  0.2431		  0.2570		  0.2719		  0.2773		  0.2868		  0.3006		  0.3243		  0.3292		  0.3563		  0.3770		  0.3936		  0.4233		  0.4435		  0.4744		  0.4985		  0.5427		  0.5754		  0.6143		  0.6728		  0.7159		  0.7797		  0.8489		  0.9209		  0.9843		  1.0780		  1.1691		  1.2685		  1.3473		  1.4201		  1.4502		  1.4158		  1.3315		  1.2043		  1.0665		  0.9315		  0.8175		  0.7112		  0.6161		  0.5313		  0.4607		  0.4033		  0.3508		  0.3084		  0.2656		  0.2310		  0.2058		  0.1808		  0.1608		  0.1491		
 0.610		  0.2127		  0.2234		  0.2266		  0.2322		  0.2372		  0.2460		  0.2603		  0.2752		  0.2806		  0.2906		  0.3048		  0.3279		  0.3339		  0.3608		  0.3816		  0.3987		  0.4285		  0.4496		  0.4801		  0.5048		  0.5494		  0.5830		  0.6226		  0.6817		  0.7256		  0.7904		  0.8607		  0.9336		  0.9979		  1.0928		  1.1854		  1.2857		  1.3654		  1.4386		  1.4696		  1.4350		  1.3500		  1.2220		  1.0838		  0.9475		  0.8325		  0.7251		  0.6287		  0.5429		  0.4713		  0.4130		  0.3594		  0.3159		  0.2723		  0.2371		  0.2113		  0.1857		  0.1652		  0.1526		
 0.620		  0.2149		  0.2257		  0.2295		  0.2348		  0.2403		  0.2489		  0.2636		  0.2786		  0.2839		  0.2944		  0.3090		  0.3315		  0.3387		  0.3653		  0.3862		  0.4038		  0.4338		  0.4556		  0.4858		  0.5111		  0.5561		  0.5904		  0.6307		  0.6898		  0.7346		  0.8003		  0.8720		  0.9464		  1.0116		  1.1076		  1.2017		  1.3030		  1.3836		  1.4572		  1.4889		  1.4543		  1.3686		  1.2396		  1.1012		  0.9636		  0.8475		  0.7389		  0.6413		  0.5546		  0.4818		  0.4227		  0.3679		  0.3233		  0.2791		  0.2432		  0.2168		  0.1906		  0.1696		  0.1561		
 0.630		  0.2171		  0.2280		  0.2324		  0.2375		  0.2434		  0.2518		  0.2669		  0.2819		  0.2871		  0.2981		  0.3132		  0.3351		  0.3434		  0.3698		  0.3908		  0.4088		  0.4390		  0.4617		  0.4915		  0.5174		  0.5628		  0.5978		  0.6388		  0.6978		  0.7435		  0.8100		  0.8824		  0.9577		  1.0245		  1.1222		  1.2181		  1.3202		  1.4017		  1.4758		  1.5083		  1.4735		  1.3871		  1.2572		  1.1185		  0.9797		  0.8625		  0.7527		  0.6540		  0.5663		  0.4924		  0.4324		  0.3764		  0.3308		  0.2858		  0.2493		  0.2223		  0.1956		  0.1740		  0.1596		
 0.640		  0.2193		  0.2302		  0.2352		  0.2401		  0.2465		  0.2547		  0.2702		  0.2852		  0.2904		  0.3019		  0.3174		  0.3387		  0.3481		  0.3743		  0.3954		  0.4139		  0.4442		  0.4678		  0.4971		  0.5237		  0.5695		  0.6053		  0.6469		  0.7058		  0.7525		  0.8196		  0.8928		  0.9690		  1.0365		  1.1348		  1.2330		  1.3374		  1.4199		  1.4944		  1.5277		  1.4927		  1.4056		  1.2749		  1.1358		  0.9957		  0.8775		  0.7665		  0.6666		  0.5779		  0.5030		  0.4422		  0.3849		  0.3383		  0.2925		  0.2554		  0.2278		  0.2005		  0.1784		  0.1631		
 0.650		  0.2215		  0.2325		  0.2381		  0.2428		  0.2496		  0.2576		  0.2735		  0.2886		  0.2937		  0.3057		  0.3215		  0.3423		  0.3528		  0.3788		  0.4000		  0.4190		  0.4494		  0.4738		  0.5028		  0.5300		  0.5761		  0.6127		  0.6550		  0.7139		  0.7615		  0.8292		  0.9032		  0.9802		  1.0486		  1.1475		  1.2466		  1.3523		  1.4370		  1.5130		  1.5471		  1.5119		  1.4241		  1.2925		  1.1532		  1.0118		  0.8925		  0.7804		  0.6792		  0.5896		  0.5135		  0.4519		  0.3934		  0.3457		  0.2993		  0.2616		  0.2333		  0.2054		  0.1828		  0.1666		
 0.660		  0.2237		  0.2348		  0.2410		  0.2454		  0.2527		  0.2605		  0.2769		  0.2919		  0.2969		  0.3095		  0.3257		  0.3459		  0.3575		  0.3833		  0.4046		  0.4240		  0.4546		  0.4799		  0.5085		  0.5364		  0.5828		  0.6201		  0.6631		  0.7219		  0.7704		  0.8388		  0.9136		  0.9915		  1.0606		  1.1601		  1.2602		  1.3672		  1.4529		  1.5304		  1.5662		  1.5312		  1.4426		  1.3102		  1.1705		  1.0278		  0.9075		  0.7942		  0.6919		  0.6013		  0.5241		  0.4616		  0.4019		  0.3532		  0.3060		  0.2677		  0.2388		  0.2103		  0.1872		  0.1701		
 0.670		  0.2259		  0.2370		  0.2439		  0.2481		  0.2559		  0.2634		  0.2802		  0.2953		  0.3002		  0.3132		  0.3299		  0.3495		  0.3623		  0.3877		  0.4092		  0.4291		  0.4598		  0.4860		  0.5142		  0.5427		  0.5895		  0.6276		  0.6712		  0.7299		  0.7794		  0.8484		  0.9240		  1.0028		  1.0727		  1.1727		  1.2738		  1.3821		  1.4688		  1.5474		  1.5830		  1.5497		  1.4612		  1.3278		  1.1878		  1.0439		  0.9225		  0.8080		  0.7045		  0.6130		  0.5347		  0.4713		  0.4104		  0.3607		  0.3127		  0.2738		  0.2444		  0.2153		  0.1915		  0.1737		
 0.680		  0.2281		  0.2393		  0.2468		  0.2507		  0.2590		  0.2663		  0.2835		  0.2986		  0.3035		  0.3170		  0.3341		  0.3531		  0.3670		  0.3922		  0.4138		  0.4342		  0.4650		  0.4920		  0.5198		  0.5490		  0.5962		  0.6350		  0.6794		  0.7380		  0.7883		  0.8580		  0.9344		  1.0141		  1.0848		  1.1853		  1.2875		  1.3971		  1.4847		  1.5644		  1.5998		  1.5677		  1.4793		  1.3454		  1.2052		  1.0600		  0.9375		  0.8218		  0.7171		  0.6246		  0.5452		  0.4810		  0.4189		  0.3681		  0.3195		  0.2799		  0.2499		  0.2202		  0.1959		  0.1772		
 0.690		  0.2303		  0.2415		  0.2497		  0.2534		  0.2621		  0.2692		  0.2868		  0.3019		  0.3068		  0.3208		  0.3383		  0.3567		  0.3717		  0.3967		  0.4184		  0.4393		  0.4703		  0.4981		  0.5255		  0.5553		  0.6029		  0.6425		  0.6875		  0.7460		  0.7973		  0.8676		  0.9447		  1.0253		  1.0968		  1.1979		  1.3011		  1.4120		  1.5005		  1.5814		  1.6166		  1.5857		  1.4974		  1.3628		  1.2221		  1.0760		  0.9525		  0.8357		  0.7297		  0.6363		  0.5558		  0.4907		  0.4275		  0.3756		  0.3262		  0.2860		  0.2554		  0.2251		  0.2003		  0.1807		
 0.700		  0.2325		  0.2438		  0.2526		  0.2560		  0.2652		  0.2722		  0.2901		  0.3053		  0.3100		  0.3245		  0.3425		  0.3603		  0.3764		  0.4012		  0.4230		  0.4443		  0.4755		  0.5042		  0.5312		  0.5616		  0.6096		  0.6499		  0.6956		  0.7540		  0.8062		  0.8772		  0.9551		  1.0366		  1.1089		  1.2105		  1.3147		  1.4269		  1.5164		  1.5984		  1.6335		  1.6037		  1.5155		  1.3802		  1.2386		  1.0922		  0.9675		  0.8495		  0.7424		  0.6480		  0.5664		  0.5004		  0.4360		  0.3831		  0.3330		  0.2921		  0.2609		  0.2300		  0.2047		  0.1842		
 0.710		  0.2347		  0.2461		  0.2554		  0.2587		  0.2683		  0.2751		  0.2934		  0.3086		  0.3133		  0.3283		  0.3467		  0.3639		  0.3811		  0.4057		  0.4276		  0.4494		  0.4807		  0.5102		  0.5369		  0.5679		  0.6162		  0.6573		  0.7037		  0.7621		  0.8152		  0.8869		  0.9655		  1.0479		  1.1209		  1.2231		  1.3283		  1.4418		  1.5323		  1.6154		  1.6503		  1.6217		  1.5335		  1.3976		  1.2551		  1.1083		  0.9827		  0.8639		  0.7556		  0.6598		  0.5769		  0.5101		  0.4445		  0.3906		  0.3397		  0.2982		  0.2664		  0.2350		  0.2091		  0.1877		
 0.720		  0.2369		  0.2483		  0.2583		  0.2613		  0.2714		  0.2780		  0.2968		  0.3120		  0.3166		  0.3321		  0.3509		  0.3675		  0.3859		  0.4102		  0.4322		  0.4545		  0.4859		  0.5163		  0.5426		  0.5743		  0.6229		  0.6648		  0.7118		  0.7701		  0.8242		  0.8965		  0.9759		  1.0591		  1.1330		  1.2357		  1.3419		  1.4567		  1.5482		  1.6324		  1.6671		  1.6397		  1.5516		  1.4150		  1.2716		  1.1245		  0.9978		  0.8783		  0.7692		  0.6726		  0.5887		  0.5205		  0.4534		  0.3981		  0.3464		  0.3043		  0.2719		  0.2399		  0.2135		  0.1912		
 0.730		  0.2391		  0.2506		  0.2612		  0.2640		  0.2746		  0.2809		  0.3001		  0.3153		  0.3198		  0.3359		  0.3551		  0.3711		  0.3906		  0.4147		  0.4368		  0.4595		  0.4911		  0.5224		  0.5482		  0.5806		  0.6296		  0.6722		  0.7199		  0.7781		  0.8331		  0.9061		  0.9863		  1.0704		  1.1451		  1.2484		  1.3556		  1.4716		  1.5641		  1.6494		  1.6839		  1.6576		  1.5697		  1.4323		  1.2882		  1.1406		  1.0130		  0.8927		  0.7828		  0.6853		  0.6006		  0.5313		  0.4632		  0.4069		  0.3545		  0.3114		  0.2781		  0.2453		  0.2183		  0.1951		
 0.740		  0.2413		  0.2529		  0.2641		  0.2666		  0.2777		  0.2838		  0.3034		  0.3186		  0.3231		  0.3396		  0.3593		  0.3747		  0.3953		  0.4192		  0.4414		  0.4646		  0.4963		  0.5284		  0.5539		  0.5869		  0.6363		  0.6796		  0.7280		  0.7862		  0.8421		  0.9157		  0.9967		  1.0817		  1.1571		  1.2610		  1.3692		  1.4865		  1.5799		  1.6664		  1.7008		  1.6756		  1.5878		  1.4497		  1.3047		  1.1568		  1.0281		  0.9071		  0.7964		  0.6980		  0.6125		  0.5422		  0.4730		  0.4158		  0.3627		  0.3189		  0.2850		  0.2515		  0.2241		  0.2014		
 0.750		  0.2435		  0.2551		  0.2670		  0.2693		  0.2808		  0.2867		  0.3067		  0.3220		  0.3264		  0.3434		  0.3635		  0.3783		  0.4000		  0.4237		  0.4460		  0.4697		  0.5015		  0.5345		  0.5596		  0.5932		  0.6430		  0.6871		  0.7361		  0.7942		  0.8510		  0.9253		  1.0071		  1.0929		  1.1692		  1.2736		  1.3828		  1.5014		  1.5958		  1.6834		  1.7176		  1.6936		  1.6058		  1.4671		  1.3212		  1.1729		  1.0433		  0.9215		  0.8100		  0.7108		  0.6244		  0.5530		  0.4828		  0.4246		  0.3709		  0.3264		  0.2919		  0.2578		  0.2299		  0.2077		
 0.760		  0.2457		  0.2574		  0.2699		  0.2719		  0.2839		  0.2896		  0.3100		  0.3253		  0.3297		  0.3472		  0.3677		  0.3819		  0.4047		  0.4282		  0.4506		  0.4748		  0.5068		  0.5405		  0.5653		  0.5995		  0.6497		  0.6945		  0.7443		  0.8022		  0.8600		  0.9349		  1.0175		  1.1042		  1.1812		  1.2862		  1.3964		  1.5164		  1.6117		  1.7004		  1.7344		  1.7116		  1.6239		  1.4845		  1.3378		  1.1891		  1.0584		  0.9359		  0.8236		  0.7235		  0.6364		  0.5638		  0.4925		  0.4334		  0.3791		  0.3339		  0.2988		  0.2640		  0.2357		  0.2140		
 0.770		  0.2479		  0.2596		  0.2727		  0.2746		  0.2870		  0.2925		  0.3133		  0.3287		  0.3329		  0.3509		  0.3719		  0.3856		  0.4095		  0.4327		  0.4552		  0.4798		  0.5120		  0.5466		  0.5709		  0.6059		  0.6563		  0.7019		  0.7524		  0.8103		  0.8690		  0.9445		  1.0278		  1.1155		  1.1933		  1.2988		  1.4100		  1.5313		  1.6276		  1.7174		  1.7513		  1.7296		  1.6420		  1.5019		  1.3543		  1.2052		  1.0736		  0.9503		  0.8372		  0.7362		  0.6483		  0.5747		  0.5023		  0.4423		  0.3874		  0.3415		  0.3057		  0.2703		  0.2415		  0.2202		
 0.780		  0.2501		  0.2619		  0.2756		  0.2772		  0.2901		  0.2954		  0.3166		  0.3320		  0.3362		  0.3547		  0.3761		  0.3892		  0.4142		  0.4372		  0.4598		  0.4849		  0.5172		  0.5527		  0.5766		  0.6122		  0.6630		  0.7094		  0.7605		  0.8183		  0.8779		  0.9541		  1.0382		  1.1268		  1.2054		  1.3114		  1.4236		  1.5462		  1.6435		  1.7344		  1.7681		  1.7476		  1.6601		  1.5192		  1.3708		  1.2214		  1.0888		  0.9647		  0.8508		  0.7489		  0.6602		  0.5855		  0.5121		  0.4511		  0.3956		  0.3490		  0.3126		  0.2765		  0.2473		  0.2265		
 0.790		  0.2523		  0.2642		  0.2785		  0.2799		  0.2933		  0.2983		  0.3200		  0.3353		  0.3395		  0.3585		  0.3803		  0.3928		  0.4189		  0.4417		  0.4644		  0.4900		  0.5224		  0.5587		  0.5823		  0.6185		  0.6697		  0.7168		  0.7686		  0.8263		  0.8869		  0.9638		  1.0486		  1.1380		  1.2174		  1.3240		  1.4373		  1.5611		  1.6593		  1.7514		  1.7849		  1.7656		  1.6781		  1.5366		  1.3873		  1.2375		  1.1039		  0.9790		  0.8644		  0.7617		  0.6721		  0.5963		  0.5219		  0.4599		  0.4038		  0.3565		  0.3195		  0.2827		  0.2531		  0.2328		
 0.800		  0.2545		  0.2664		  0.2814		  0.2825		  0.2964		  0.3013		  0.3233		  0.3387		  0.3427		  0.3623		  0.3845		  0.3964		  0.4236		  0.4462		  0.4690		  0.4950		  0.5276		  0.5648		  0.5880		  0.6248		  0.6764		  0.7242		  0.7767		  0.8344		  0.8958		  0.9734		  1.0590		  1.1493		  1.2295		  1.3366		  1.4509		  1.5760		  1.6752		  1.7684		  1.8017		  1.7836		  1.6962		  1.5540		  1.4039		  1.2537		  1.1191		  0.9934		  0.8780		  0.7744		  0.6840		  0.6072		  0.5316		  0.4687		  0.4121		  0.3640		  0.3264		  0.2890		  0.2589		  0.2391		
 0.810		  0.2567		  0.2687		  0.2843		  0.2852		  0.2995		  0.3042		  0.3266		  0.3420		  0.3460		  0.3660		  0.3887		  0.4000		  0.4283		  0.4507		  0.4736		  0.5001		  0.5328		  0.5709		  0.5936		  0.6311		  0.6831		  0.7317		  0.7848		  0.8424		  0.9048		  0.9830		  1.0694		  1.1606		  1.2415		  1.3493		  1.4645		  1.5909		  1.6911		  1.7854		  1.8186		  1.8016		  1.7143		  1.5714		  1.4204		  1.2698		  1.1342		  1.0078		  0.8916		  0.7871		  0.6959		  0.6180		  0.5414		  0.4776		  0.4203		  0.3716		  0.3333		  0.2952		  0.2647		  0.2453		
 0.820		  0.2588		  0.2710		  0.2872		  0.2878		  0.3026		  0.3071		  0.3299		  0.3454		  0.3493		  0.3698		  0.3929		  0.4036		  0.4331		  0.4552		  0.4782		  0.5052		  0.5380		  0.5769		  0.5993		  0.6374		  0.6898		  0.7391		  0.7929		  0.8504		  0.9137		  0.9926		  1.0798		  1.1718		  1.2536		  1.3619		  1.4781		  1.6058		  1.7070		  1.8024		  1.8354		  1.8196		  1.7324		  1.5887		  1.4369		  1.2860		  1.1494		  1.0222		  0.9053		  0.7999		  0.7079		  0.6288		  0.5512		  0.4864		  0.4285		  0.3791		  0.3402		  0.3014		  0.2706		  0.2516		
 0.830		  0.2620		  0.2741		  0.2902		  0.2910		  0.3059		  0.3104		  0.3334		  0.3490		  0.3528		  0.3736		  0.3971		  0.4072		  0.4378		  0.4597		  0.4828		  0.5103		  0.5433		  0.5830		  0.6050		  0.6438		  0.6964		  0.7465		  0.8010		  0.8585		  0.9227		  1.0022		  1.0902		  1.1831		  1.2656		  1.3745		  1.4917		  1.6207		  1.7229		  1.8194		  1.8522		  1.8375		  1.7504		  1.6061		  1.4535		  1.3021		  1.1645		  1.0366		  0.9189		  0.8126		  0.7198		  0.6397		  0.5610		  0.4952		  0.4368		  0.3866		  0.3471		  0.3077		  0.2764		  0.2579		
 0.840		  0.2652		  0.2774		  0.2934		  0.2944		  0.3094		  0.3143		  0.3373		  0.3532		  0.3574		  0.3783		  0.4017		  0.4120		  0.4430		  0.4648		  0.4880		  0.5157		  0.5487		  0.5891		  0.6107		  0.6501		  0.7031		  0.7540		  0.8091		  0.8665		  0.9317		  1.0118		  1.1006		  1.1944		  1.2777		  1.3871		  1.5054		  1.6357		  1.7387		  1.8364		  1.8690		  1.8555		  1.7685		  1.6235		  1.4700		  1.3183		  1.1797		  1.0510		  0.9325		  0.8253		  0.7317		  0.6505		  0.5708		  0.5041		  0.4450		  0.3941		  0.3540		  0.3139		  0.2822		  0.2642		
 0.850		  0.2685		  0.2808		  0.2965		  0.2978		  0.3129		  0.3183		  0.3412		  0.3575		  0.3621		  0.3829		  0.4064		  0.4170		  0.4484		  0.4704		  0.4940		  0.5220		  0.5553		  0.5957		  0.6175		  0.6571		  0.7102		  0.7616		  0.8173		  0.8745		  0.9406		  1.0214		  1.1109		  1.2056		  1.2898		  1.3997		  1.5190		  1.6506		  1.7546		  1.8534		  1.8859		  1.8735		  1.7866		  1.6409		  1.4865		  1.3344		  1.1948		  1.0654		  0.9461		  0.8380		  0.7436		  0.6613		  0.5805		  0.5129		  0.4532		  0.4017		  0.3609		  0.3202		  0.2880		  0.2705		
 0.860		  0.2718		  0.2842		  0.2996		  0.3012		  0.3164		  0.3222		  0.3451		  0.3618		  0.3667		  0.3875		  0.4111		  0.4220		  0.4538		  0.4759		  0.4999		  0.5283		  0.5620		  0.6023		  0.6246		  0.6646		  0.7180		  0.7700		  0.8261		  0.8838		  0.9501		  1.0312		  1.1213		  1.2169		  1.3018		  1.4123		  1.5326		  1.6655		  1.7705		  1.8704		  1.9027		  1.8915		  1.8047		  1.6583		  1.5031		  1.3506		  1.2100		  1.0798		  0.9597		  0.8508		  0.7555		  0.6722		  0.5903		  0.5217		  0.4614		  0.4092		  0.3678		  0.3264		  0.2938		  0.2767		
 0.870		  0.2751		  0.2876		  0.3028		  0.3046		  0.3199		  0.3261		  0.3490		  0.3660		  0.3713		  0.3921		  0.4158		  0.4270		  0.4592		  0.4815		  0.5059		  0.5346		  0.5687		  0.6090		  0.6317		  0.6721		  0.7257		  0.7785		  0.8350		  0.8934		  0.9603		  1.0421		  1.1327		  1.2287		  1.3140		  1.4249		  1.5462		  1.6804		  1.7864		  1.8874		  1.9195		  1.9095		  1.8227		  1.6756		  1.5196		  1.3667		  1.2251		  1.0942		  0.9733		  0.8635		  0.7674		  0.6830		  0.6001		  0.5306		  0.4697		  0.4167		  0.3747		  0.3326		  0.2996		  0.2830		
 0.880		  0.2783		  0.2909		  0.3059		  0.3081		  0.3234		  0.3300		  0.3529		  0.3703		  0.3759		  0.3968		  0.4204		  0.4320		  0.4646		  0.4870		  0.5119		  0.5409		  0.5754		  0.6156		  0.6388		  0.6797		  0.7335		  0.7869		  0.8438		  0.9031		  0.9706		  1.0530		  1.1442		  1.2410		  1.3273		  1.4387		  1.5603		  1.6953		  1.8022		  1.9044		  1.9364		  1.9275		  1.8408		  1.6930		  1.5361		  1.3829		  1.2403		  1.1086		  0.9869		  0.8762		  0.7794		  0.6938		  0.6099		  0.5394		  0.4779		  0.4242		  0.3816		  0.3389		  0.3054		  0.2893		
 0.890		  0.2816		  0.2943		  0.3090		  0.3115		  0.3269		  0.3340		  0.3568		  0.3746		  0.3806		  0.4014		  0.4251		  0.4371		  0.4699		  0.4926		  0.5179		  0.5472		  0.5821		  0.6222		  0.6459		  0.6872		  0.7412		  0.7953		  0.8527		  0.9128		  0.9808		  1.0639		  1.1558		  1.2533		  1.3406		  1.4530		  1.5761		  1.7113		  1.8185		  1.9214		  1.9532		  1.9455		  1.8589		  1.7104		  1.5526		  1.3990		  1.2554		  1.1230		  1.0005		  0.8890		  0.7913		  0.7047		  0.6196		  0.5482		  0.4861		  0.4318		  0.3885		  0.3451		  0.3112		  0.2956		
 0.900		  0.2849		  0.2977		  0.3122		  0.3149		  0.3303		  0.3379		  0.3607		  0.3789		  0.3852		  0.4060		  0.4298		  0.4421		  0.4753		  0.4981		  0.5239		  0.5535		  0.5887		  0.6289		  0.6530		  0.6947		  0.7490		  0.8037		  0.8616		  0.9225		  0.9910		  1.0748		  1.1674		  1.2655		  1.3539		  1.4673		  1.5919		  1.7276		  1.8360		  1.9390		  1.9701		  1.9635		  1.8770		  1.7278		  1.5692		  1.4152		  1.2706		  1.1374		  1.0141		  0.9017		  0.8032		  0.7155		  0.6294		  0.5570		  0.4944		  0.4393		  0.3954		  0.3513		  0.3170		  0.3018		
 0.910		  0.2882		  0.3011		  0.3153		  0.3183		  0.3338		  0.3418		  0.3646		  0.3831		  0.3898		  0.4107		  0.4345		  0.4471		  0.4807		  0.5037		  0.5298		  0.5598		  0.5954		  0.6355		  0.6601		  0.7022		  0.7567		  0.8122		  0.8704		  0.9322		  1.0013		  1.0857		  1.1790		  1.2778		  1.3673		  1.4816		  1.6077		  1.7439		  1.8535		  1.9569		  1.9887		  1.9817		  1.8950		  1.7452		  1.5857		  1.4313		  1.2858		  1.1518		  1.0277		  0.9144		  0.8151		  0.7264		  0.6392		  0.5659		  0.5026		  0.4468		  0.4023		  0.3576		  0.3228		  0.3081		
 0.920		  0.2914		  0.3044		  0.3184		  0.3218		  0.3373		  0.3457		  0.3685		  0.3874		  0.3945		  0.4153		  0.4391		  0.4521		  0.4861		  0.5092		  0.5358		  0.5661		  0.6021		  0.6421		  0.6673		  0.7097		  0.7645		  0.8206		  0.8793		  0.9418		  1.0115		  1.0965		  1.1905		  1.2901		  1.3806		  1.4959		  1.6234		  1.7602		  1.8709		  1.9747		  2.0073		  2.0001		  1.9130		  1.7626		  1.6022		  1.4475		  1.3009		  1.1662		  1.0413		  0.9271		  0.8270		  0.7372		  0.6490		  0.5747		  0.5108		  0.4543		  0.4092		  0.3638		  0.3287		  0.3144		
 0.930		  0.2947		  0.3078		  0.3215		  0.3252		  0.3408		  0.3497		  0.3724		  0.3917		  0.3991		  0.4199		  0.4438		  0.4571		  0.4915		  0.5148		  0.5418		  0.5725		  0.6088		  0.6488		  0.6744		  0.7172		  0.7722		  0.8290		  0.8882		  0.9515		  1.0217		  1.1074		  1.2021		  1.3024		  1.3939		  1.5102		  1.6392		  1.7764		  1.8884		  1.9926		  2.0259		  2.0186		  1.9309		  1.7804		  1.6193		  1.4636		  1.3161		  1.1806		  1.0549		  0.9399		  0.8389		  0.7480		  0.6587		  0.5835		  0.5191		  0.4619		  0.4161		  0.3701		  0.3345		  0.3207		
 0.940		  0.2980		  0.3112		  0.3247		  0.3286		  0.3443		  0.3536		  0.3763		  0.3959		  0.4037		  0.4246		  0.4485		  0.4622		  0.4969		  0.5203		  0.5478		  0.5788		  0.6154		  0.6554		  0.6815		  0.7248		  0.7800		  0.8375		  0.8970		  0.9612		  1.0320		  1.1183		  1.2137		  1.3147		  1.4072		  1.5244		  1.6550		  1.7927		  1.9059		  2.0105		  2.0445		  2.0371		  1.9489		  1.7982		  1.6367		  1.4806		  1.3317		  1.1950		  1.0685		  0.9526		  0.8509		  0.7589		  0.6685		  0.5924		  0.5273		  0.4694		  0.4230		  0.3763		  0.3403		  0.3270		
 0.950		  0.3013		  0.3146		  0.3278		  0.3320		  0.3478		  0.3575		  0.3802		  0.4002		  0.4084		  0.4292		  0.4532		  0.4672		  0.5023		  0.5259		  0.5537		  0.5851		  0.6221		  0.6621		  0.6886		  0.7323		  0.7877		  0.8459		  0.9059		  0.9709		  1.0422		  1.1292		  1.2253		  1.3270		  1.4205		  1.5387		  1.6708		  1.8090		  1.9233		  2.0284		  2.0631		  2.0556		  1.9668		  1.8160		  1.6542		  1.4976		  1.3481		  1.2105		  1.0827		  0.9654		  0.8628		  0.7697		  0.6783		  0.6012		  0.5355		  0.4769		  0.4299		  0.3825		  0.3461		  0.3332		
 0.960		  0.3045		  0.3179		  0.3309		  0.3355		  0.3513		  0.3614		  0.3841		  0.4045		  0.4130		  0.4338		  0.4578		  0.4722		  0.5077		  0.5315		  0.5597		  0.5914		  0.6288		  0.6687		  0.6957		  0.7398		  0.7955		  0.8543		  0.9148		  0.9805		  1.0524		  1.1401		  1.2368		  1.3393		  1.4338		  1.5530		  1.6865		  1.8252		  1.9408		  2.0462		  2.0817		  2.0740		  1.9848		  1.8338		  1.6716		  1.5146		  1.3644		  1.2260		  1.0975		  0.9793		  0.8755		  0.7811		  0.6883		  0.6100		  0.5437		  0.4844		  0.4368		  0.3888		  0.3519		  0.3395		
 0.970		  0.3078		  0.3213		  0.3341		  0.3389		  0.3548		  0.3654		  0.3880		  0.4088		  0.4176		  0.4384		  0.4625		  0.4772		  0.5131		  0.5370		  0.5657		  0.5977		  0.6355		  0.6753		  0.7028		  0.7473		  0.8032		  0.8627		  0.9236		  0.9902		  1.0627		  1.1510		  1.2484		  1.3516		  1.4471		  1.5673		  1.7023		  1.8415		  1.9582		  2.0641		  2.1003		  2.0925		  2.0027		  1.8516		  1.6891		  1.5316		  1.3807		  1.2416		  1.1123		  0.9932		  0.8885		  0.7935		  0.6999		  0.6207		  0.5530		  0.4926		  0.4440		  0.3950		  0.3577		  0.3458		
 0.980		  0.3111		  0.3247		  0.3372		  0.3423		  0.3583		  0.3693		  0.3919		  0.4130		  0.4223		  0.4431		  0.4672		  0.4822		  0.5185		  0.5426		  0.5717		  0.6040		  0.6422		  0.6820		  0.7099		  0.7548		  0.8110		  0.8712		  0.9325		  0.9999		  1.0729		  1.1619		  1.2600		  1.3639		  1.4604		  1.5816		  1.7181		  1.8578		  1.9757		  2.0820		  2.1189		  2.1110		  2.0207		  1.8693		  1.7065		  1.5486		  1.3970		  1.2572		  1.1271		  1.0071		  0.9016		  0.8058		  0.7116		  0.6317		  0.5630		  0.5019		  0.4525		  0.4029		  0.3649		  0.3521		
 0.990		  0.3144		  0.3281		  0.3403		  0.3457		  0.3618		  0.3732		  0.3958		  0.4173		  0.4269		  0.4477		  0.4719		  0.4872		  0.5239		  0.5481		  0.5777		  0.6103		  0.6488		  0.6886		  0.7170		  0.7624		  0.8187		  0.8796		  0.9414		  1.0096		  1.0832		  1.1727		  1.2715		  1.3762		  1.4738		  1.5959		  1.7339		  1.8741		  1.9932		  2.0999		  2.1376		  2.1294		  2.0386		  1.8871		  1.7240		  1.5656		  1.4133		  1.2727		  1.1419		  1.0210		  0.9146		  0.8182		  0.7233		  0.6427		  0.5730		  0.5113		  0.4610		  0.4109		  0.3723		  0.3584		
 1.000		  0.3177		  0.3314		  0.3435		  0.3492		  0.3652		  0.3771		  0.3997		  0.4216		  0.4315		  0.4523		  0.4765		  0.4923		  0.5293		  0.5537		  0.5836		  0.6166		  0.6555		  0.6953		  0.7241		  0.7699		  0.8265		  0.8880		  0.9502		  1.0193		  1.0934		  1.1836		  1.2831		  1.3885		  1.4871		  1.6102		  1.7496		  1.8903		  2.0106		  2.1177		  2.1562		  2.1479		  2.0566		  1.9049		  1.7414		  1.5826		  1.4296		  1.2883		  1.1568		  1.0348		  0.9276		  0.8305		  0.7350		  0.6538		  0.5831		  0.5207		  0.4695		  0.4188		  0.3798		  0.3646		
 1.010		  0.3209		  0.3348		  0.3466		  0.3526		  0.3687		  0.3811		  0.4036		  0.4258		  0.4362		  0.4570		  0.4812		  0.4973		  0.5347		  0.5592		  0.5896		  0.6229		  0.6622		  0.7019		  0.7312		  0.7774		  0.8342		  0.8965		  0.9591		  1.0289		  1.1036		  1.1945		  1.2947		  1.4008		  1.5004		  1.6245		  1.7654		  1.9066		  2.0281		  2.1356		  2.1748		  2.1664		  2.0745		  1.9227		  1.7588		  1.5996		  1.4459		  1.3038		  1.1716		  1.0487		  0.9407		  0.8428		  0.7467		  0.6648		  0.5931		  0.5300		  0.4780		  0.4268		  0.3872		  0.3709		
 1.020		  0.3242		  0.3382		  0.3497		  0.3560		  0.3722		  0.3850		  0.4075		  0.4301		  0.4408		  0.4616		  0.4859		  0.5023		  0.5401		  0.5648		  0.5956		  0.6292		  0.6689		  0.7085		  0.7383		  0.7849		  0.8420		  0.9049		  0.9680		  1.0386		  1.1139		  1.2054		  1.3063		  1.4131		  1.5137		  1.6388		  1.7812		  1.9229		  2.0456		  2.1535		  2.1934		  2.1849		  2.0925		  1.9405		  1.7763		  1.6166		  1.4622		  1.3194		  1.1864		  1.0626		  0.9537		  0.8552		  0.7584		  0.6759		  0.6031		  0.5394		  0.4864		  0.4347		  0.3947		  0.3772		
 1.030		  0.3275		  0.3416		  0.3529		  0.3594		  0.3757		  0.3889		  0.4114		  0.4344		  0.4454		  0.4662		  0.4906		  0.5073		  0.5455		  0.5703		  0.6016		  0.6355		  0.6755		  0.7152		  0.7454		  0.7924		  0.8497		  0.9133		  0.9769		  1.0483		  1.1241		  1.2163		  1.3178		  1.4254		  1.5270		  1.6531		  1.7970		  1.9391		  2.0630		  2.1714		  2.2120		  2.2033		  2.1104		  1.9582		  1.7937		  1.6337		  1.4785		  1.3349		  1.2012		  1.0765		  0.9667		  0.8675		  0.7701		  0.6869		  0.6131		  0.5487		  0.4949		  0.4427		  0.4021		  0.3835		
 1.040		  0.3308		  0.3449		  0.3560		  0.3628		  0.3792		  0.3928		  0.4153		  0.4387		  0.4501		  0.4708		  0.4952		  0.5123		  0.5509		  0.5759		  0.6075		  0.6418		  0.6822		  0.7218		  0.7526		  0.7999		  0.8575		  0.9217		  0.9857		  1.0580		  1.1343		  1.2272		  1.3294		  1.4377		  1.5403		  1.6674		  1.8127		  1.9554		  2.0805		  2.1892		  2.2306		  2.2218		  2.1283		  1.9760		  1.8112		  1.6507		  1.4949		  1.3505		  1.2160		  1.0904		  0.9798		  0.8799		  0.7818		  0.6980		  0.6231		  0.5581		  0.5034		  0.4506		  0.4096		  0.3897		
 1.050		  0.3340		  0.3483		  0.3591		  0.3663		  0.3827		  0.3967		  0.4192		  0.4429		  0.4547		  0.4755		  0.4999		  0.5174		  0.5563		  0.5814		  0.6135		  0.6481		  0.6889		  0.7285		  0.7597		  0.8075		  0.8652		  0.9302		  0.9946		  1.0676		  1.1446		  1.2381		  1.3410		  1.4500		  1.5536		  1.6817		  1.8285		  1.9717		  2.0980		  2.2071		  2.2492		  2.2403		  2.1463		  1.9938		  1.8286		  1.6677		  1.5112		  1.3661		  1.2308		  1.1043		  0.9928		  0.8922		  0.7935		  0.7090		  0.6332		  0.5674		  0.5119		  0.4586		  0.4170		  0.3960		
 1.060		  0.3373		  0.3517		  0.3623		  0.3697		  0.3862		  0.4007		  0.4231		  0.4472		  0.4593		  0.4801		  0.5046		  0.5224		  0.5617		  0.5870		  0.6195		  0.6544		  0.6956		  0.7351		  0.7668		  0.8150		  0.8730		  0.9386		  1.0035		  1.0773		  1.1548		  1.2490		  1.3526		  1.4623		  1.5670		  1.6960		  1.8443		  1.9879		  2.1154		  2.2250		  2.2678		  2.2588		  2.1642		  2.0116		  1.8461		  1.6847		  1.5275		  1.3816		  1.2456		  1.1182		  1.0058		  0.9046		  0.8052		  0.7201		  0.6432		  0.5768		  0.5204		  0.4665		  0.4245		  0.4023		
 1.070		  0.3406		  0.3551		  0.3654		  0.3731		  0.3897		  0.4046		  0.4270		  0.4515		  0.4640		  0.4847		  0.5093		  0.5274		  0.5671		  0.5925		  0.6255		  0.6608		  0.7022		  0.7417		  0.7739		  0.8225		  0.8807		  0.9470		  1.0123		  1.0870		  1.1650		  1.2598		  1.3641		  1.4746		  1.5803		  1.7103		  1.8601		  2.0042		  2.1329		  2.2429		  2.2864		  2.2772		  2.1822		  2.0294		  1.8635		  1.7017		  1.5438		  1.3972		  1.2604		  1.1320		  1.0189		  0.9169		  0.8169		  0.7311		  0.6532		  0.5862		  0.5289		  0.4745		  0.4319		  0.4086		
 1.080		  0.3439		  0.3584		  0.3685		  0.3765		  0.3932		  0.4085		  0.4309		  0.4557		  0.4686		  0.4894		  0.5139		  0.5324		  0.5724		  0.5981		  0.6315		  0.6671		  0.7089		  0.7484		  0.7810		  0.8300		  0.8885		  0.9555		  1.0212		  1.0967		  1.1753		  1.2707		  1.3757		  1.4869		  1.5936		  1.7246		  1.8759		  2.0205		  2.1503		  2.2607		  2.3050		  2.2957		  2.2001		  2.0471		  1.8810		  1.7187		  1.5601		  1.4127		  1.2752		  1.1459		  1.0319		  0.9293		  0.8286		  0.7422		  0.6632		  0.5955		  0.5374		  0.4824		  0.4394		  0.4149		
 1.090		  0.3471		  0.3618		  0.3717		  0.3800		  0.3967		  0.4124		  0.4348		  0.4600		  0.4732		  0.4940		  0.5186		  0.5374		  0.5778		  0.6036		  0.6374		  0.6734		  0.7156		  0.7550		  0.7881		  0.8375		  0.8962		  0.9639		  1.0301		  1.1064		  1.1855		  1.2816		  1.3873		  1.4992		  1.6069		  1.7389		  1.8916		  2.0368		  2.1678		  2.2786		  2.3237		  2.3142		  2.2181		  2.0649		  1.8984		  1.7357		  1.5764		  1.4283		  1.2900		  1.1598		  1.0449		  0.9416		  0.8403		  0.7532		  0.6732		  0.6049		  0.5459		  0.4904		  0.4469		  0.4211		
 1.100		  0.3504		  0.3652		  0.3748		  0.3834		  0.4001		  0.4164		  0.4387		  0.4643		  0.4779		  0.4986		  0.5233		  0.5424		  0.5832		  0.6092		  0.6434		  0.6797		  0.7223		  0.7617		  0.7952		  0.8450		  0.9040		  0.9723		  1.0389		  1.1160		  1.1957		  1.2925		  1.3988		  1.5115		  1.6202		  1.7532		  1.9074		  2.0530		  2.1853		  2.2965		  2.3423		  2.3327		  2.2360		  2.0827		  1.9159		  1.7527		  1.5927		  1.4438		  1.3048		  1.1737		  1.0580		  0.9540		  0.8520		  0.7642		  0.6833		  0.6142		  0.5544		  0.4983		  0.4543		  0.4274		
 1.110		  0.3537		  0.3686		  0.3779		  0.3868		  0.4036		  0.4203		  0.4426		  0.4685		  0.4825		  0.5033		  0.5280		  0.5475		  0.5886		  0.6147		  0.6494		  0.6860		  0.7290		  0.7683		  0.8023		  0.8526		  0.9117		  0.9807		  1.0478		  1.1257		  1.2060		  1.3034		  1.4104		  1.5238		  1.6335		  1.7675		  1.9232		  2.0693		  2.2027		  2.3144		  2.3609		  2.3511		  2.2540		  2.1005		  1.9333		  1.7697		  1.6090		  1.4594		  1.3196		  1.1876		  1.0710		  0.9663		  0.8637		  0.7753		  0.6933		  0.6236		  0.5629		  0.5063		  0.4618		  0.4337		
 1.120		  0.3570		  0.3719		  0.3810		  0.3902		  0.4071		  0.4242		  0.4465		  0.4728		  0.4871		  0.5079		  0.5326		  0.5525		  0.5940		  0.6203		  0.6554		  0.6923		  0.7356		  0.7749		  0.8094		  0.8601		  0.9195		  0.9892		  1.0567		  1.1354		  1.2162		  1.3143		  1.4220		  1.5361		  1.6468		  1.7818		  1.9390		  2.0856		  2.2202		  2.3322		  2.3795		  2.3696		  2.2719		  2.1183		  1.9508		  1.7867		  1.6253		  1.4750		  1.3344		  1.2015		  1.0840		  0.9787		  0.8754		  0.7863		  0.7033		  0.6329		  0.5714		  0.5142		  0.4692		  0.4400		
 1.130		  0.3603		  0.3753		  0.3842		  0.3937		  0.4106		  0.4281		  0.4504		  0.4771		  0.4918		  0.5125		  0.5373		  0.5575		  0.5994		  0.6258		  0.6613		  0.6986		  0.7423		  0.7816		  0.8165		  0.8676		  0.9272		  0.9976		  1.0655		  1.1451		  1.2264		  1.3252		  1.4336		  1.5484		  1.6602		  1.7961		  1.9547		  2.1018		  2.2377		  2.3501		  2.3981		  2.3881		  2.2899		  2.1361		  1.9682		  1.8037		  1.6417		  1.4905		  1.3492		  1.2154		  1.0971		  0.9910		  0.8871		  0.7974		  0.7133		  0.6423		  0.5799		  0.5222		  0.4767		  0.4463		
 1.140		  0.3635		  0.3787		  0.3873		  0.3971		  0.4141		  0.4321		  0.4543		  0.4814		  0.4964		  0.5171		  0.5420		  0.5625		  0.6048		  0.6314		  0.6673		  0.7049		  0.7490		  0.7882		  0.8236		  0.8751		  0.9350		  1.0060		  1.0744		  1.1547		  1.2367		  1.3361		  1.4451		  1.5607		  1.6735		  1.8103		  1.9705		  2.1181		  2.2551		  2.3680		  2.4167		  2.4065		  2.3078		  2.1538		  1.9857		  1.8207		  1.6580		  1.5061		  1.3640		  1.2292		  1.1101		  1.0033		  0.8988		  0.8084		  0.7233		  0.6517		  0.5884		  0.5301		  0.4841		  0.4525		
 1.150		  0.3668		  0.3821		  0.3904		  0.4005		  0.4176		  0.4360		  0.4582		  0.4856		  0.5010		  0.5218		  0.5467		  0.5675		  0.6102		  0.6370		  0.6733		  0.7112		  0.7557		  0.7948		  0.8308		  0.8826		  0.9427		  1.0145		  1.0833		  1.1644		  1.2469		  1.3469		  1.4567		  1.5730		  1.6868		  1.8246		  1.9863		  2.1344		  2.2726		  2.3859		  2.4353		  2.4250		  2.3258		  2.1716		  2.0031		  1.8377		  1.6743		  1.5216		  1.3788		  1.2431		  1.1231		  1.0157		  0.9105		  0.8195		  0.7334		  0.6610		  0.5969		  0.5381		  0.4916		  0.4588		
 1.160		  0.3701		  0.3854		  0.3936		  0.4039		  0.4211		  0.4399		  0.4621		  0.4899		  0.5057		  0.5264		  0.5513		  0.5726		  0.6156		  0.6425		  0.6793		  0.7175		  0.7623		  0.8015		  0.8379		  0.8901		  0.9505		  1.0229		  1.0921		  1.1741		  1.2571		  1.3578		  1.4683		  1.5853		  1.7001		  1.8389		  2.0021		  2.1507		  2.2901		  2.4038		  2.4539		  2.4435		  2.3437		  2.1894		  2.0205		  1.8547		  1.6906		  1.5372		  1.3936		  1.2570		  1.1362		  1.0280		  0.9222		  0.8305		  0.7434		  0.6704		  0.6054		  0.5460		  0.4990		  0.4651		
 1.170		  0.3734		  0.3888		  0.3967		  0.4074		  0.4246		  0.4438		  0.4660		  0.4942		  0.5103		  0.5310		  0.5560		  0.5776		  0.6210		  0.6481		  0.6853		  0.7238		  0.7690		  0.8081		  0.8450		  0.8977		  0.9582		  1.0313		  1.1010		  1.1838		  1.2674		  1.3687		  1.4799		  1.5976		  1.7134		  1.8532		  2.0178		  2.1669		  2.3075		  2.4216		  2.4725		  2.4620		  2.3617		  2.2072		  2.0380		  1.8717		  1.7069		  1.5528		  1.4084		  1.2709		  1.1492		  1.0404		  0.9339		  0.8416		  0.7534		  0.6797		  0.6139		  0.5540		  0.5065		  0.4714		
 1.180		  0.3766		  0.3922		  0.3998		  0.4108		  0.4281		  0.4478		  0.4699		  0.4984		  0.5149		  0.5357		  0.5607		  0.5826		  0.6264		  0.6536		  0.6912		  0.7301		  0.7757		  0.8148		  0.8521		  0.9052		  0.9660		  1.0398		  1.1099		  1.1935		  1.2776		  1.3796		  1.4914		  1.6099		  1.7267		  1.8675		  2.0336		  2.1832		  2.3250		  2.4395		  2.4911		  2.4804		  2.3796		  2.2250		  2.0554		  1.8887		  1.7232		  1.5683		  1.4232		  1.2848		  1.1622		  1.0527		  0.9456		  0.8526		  0.7634		  0.6891		  0.6224		  0.5619		  0.5139		  0.4776		
 1.190		  0.3799		  0.3956		  0.4030		  0.4142		  0.4316		  0.4517		  0.4738		  0.5027		  0.5196		  0.5403		  0.5654		  0.5876		  0.6318		  0.6592		  0.6972		  0.7364		  0.7824		  0.8214		  0.8592		  0.9127		  0.9737		  1.0482		  1.1187		  1.2031		  1.2878		  1.3905		  1.5030		  1.6222		  1.7400		  1.8818		  2.0494		  2.1995		  2.3424		  2.4574		  2.5098		  2.4989		  2.3975		  2.2427		  2.0729		  1.9057		  1.7395		  1.5839		  1.4380		  1.2987		  1.1753		  1.0651		  0.9573		  0.8637		  0.7734		  0.6984		  0.6309		  0.5699		  0.5214		  0.4839		
 1.200		  0.3859		  0.4040		  0.4061		  0.4176		  0.4350		  0.4556		  0.4777		  0.5070		  0.5242		  0.5449		  0.5700		  0.5926		  0.6372		  0.6647		  0.7032		  0.7427		  0.7891		  0.8280		  0.8663		  0.9202		  0.9815		  1.0566		  1.1276		  1.2128		  1.2981		  1.4014		  1.5146		  1.6345		  1.7533		  1.8961		  2.0652		  2.2157		  2.3599		  2.4753		  2.5284		  2.5174		  2.4155		  2.2605		  2.0903		  1.9227		  1.7558		  1.5994		  1.4528		  1.3126		  1.1883		  1.0774		  0.9689		  0.8747		  0.7834		  0.7078		  0.6394		  0.5778		  0.5288		  0.4902		
 1.210		     NaN		     NaN		     NaN		  0.4558		  0.4854		  0.4987		  0.5428		  0.5587		  0.5735		  0.5850		  0.6035		  0.6145		  0.6290		  0.6703		  0.7092		  0.7491		  0.7957		  0.8347		  0.8734		  0.9277		  0.9892		  1.0650		  1.1365		  1.2225		  1.3083		  1.4123		  1.5261		  1.6468		  1.7667		  1.9104		  2.0809		  2.2320		  2.3774		  2.4931		  2.5470		  2.5359		  2.4334		  2.2783		  2.1078		  1.9398		  1.7721		  1.6150		  1.4676		  1.3264		  1.2013		  1.0898		  0.9806		  0.8857		  0.7935		  0.7172		  0.6478		  0.5858		  0.5363		  0.4965		
 1.220		     NaN		     NaN		     NaN		     NaN		     NaN		     NaN		     NaN		  0.5653		  0.5817		  0.6668		  0.6842		  0.7143		  0.7258		  0.7471		  0.7895		  0.7853		  0.7993		  0.8503		  0.8926		  0.9365		  0.9970		  1.0735		  1.1453		  1.2322		  1.3186		  1.4232		  1.5377		  1.6591		  1.7800		  1.9247		  2.0967		  2.2483		  2.3948		  2.5110		  2.5656		  2.5543		  2.4514		  2.2961		  2.1252		  1.9568		  1.7885		  1.6305		  1.4824		  1.3403		  1.2144		  1.1021		  0.9923		  0.8968		  0.8035		  0.7265		  0.6563		  0.5937		  0.5437		  0.5028		
 1.230		     NaN		     NaN		     NaN		     NaN		     NaN		     NaN		     NaN		     NaN		     NaN		     NaN		     NaN		  0.6647		  0.6803		  0.8165		  0.8397		  0.8666		  0.8814		  0.9134		  0.9432		  0.9560		  1.0092		  1.0519		  1.1718		  1.2472		  1.3288		  1.4340		  1.5493		  1.6714		  1.7933		  1.9390		  2.1125		  2.2646		  2.4123		  2.5289		  2.5842		  2.5728		  2.4693		  2.3139		  2.1427		  1.9738		  1.8048		  1.6461		  1.4972		  1.3542		  1.2274		  1.1145		  1.0040		  0.9078		  0.8135		  0.7359		  0.6648		  0.6017		  0.5512		  0.5090		
 1.240		     NaN		     NaN		     NaN		     NaN		     NaN		     NaN		     NaN		     NaN		     NaN		     NaN		     NaN		     NaN		     NaN		     NaN		     NaN		     NaN		  0.8251		  0.9555		  1.0074		  1.0189		  1.0755		  1.1014		  1.1152		  1.1680		     NaN		  1.4384		  1.5163		  1.6724		  1.8066		  1.9533		  2.1283		  2.2808		  2.4298		  2.5468		  2.6028		  2.5913		  2.4873		  2.3317		  2.1601		  1.9908		  1.8211		  1.6617		  1.5120		  1.3681		  1.2404		  1.1268		  1.0157		  0.9189		  0.8235		  0.7452		  0.6733		  0.6096		  0.5586		  0.5153		
 1.250		     NaN		     NaN		     NaN		     NaN		     NaN		     NaN		     NaN		     NaN		     NaN		     NaN		     NaN		     NaN		     NaN		     NaN		     NaN		     NaN		     NaN		     NaN		     NaN		     NaN		  1.0410		  1.0987		  1.1597		  1.2173		  1.2595		     NaN		     NaN		     NaN		     NaN		  1.9069		  2.1351		  2.2971		  2.4472		  2.5646		  2.6214		  2.6097		  2.5052		  2.3494		  2.1776		  2.0078		  1.8374		  1.6772		  1.5268		  1.3820		  1.2535		  1.1392		  1.0274		  0.9299		  0.8335		  0.7546		  0.6818		  0.6176		  0.5661		  0.5216		
 1.260		     NaN		     NaN		     NaN		     NaN		     NaN		     NaN		     NaN		     NaN		     NaN		     NaN		     NaN		     NaN		     NaN		     NaN		     NaN		     NaN		     NaN		     NaN		     NaN		     NaN		     NaN		     NaN		     NaN		     NaN		  1.2291		  1.3006		  1.3148		  1.4184		     NaN		     NaN		     NaN		     NaN		  2.3691		  2.5825		  2.6400		  2.6282		  2.5232		  2.3672		  2.1950		  2.0248		  1.8537		  1.6928		  1.5416		  1.3959		  1.2665		  1.1515		  1.0391		  0.9410		  0.8436		  0.7639		  0.6903		  0.6255		  0.5735		  0.5279		
 1.270		     NaN		     NaN		     NaN		     NaN		     NaN		     NaN		     NaN		     NaN		     NaN		     NaN		     NaN		     NaN		     NaN		     NaN		     NaN		     NaN		     NaN		     NaN		     NaN		     NaN		     NaN		     NaN		     NaN		     NaN		     NaN		     NaN		     NaN		     NaN		  1.3689		  1.4528		     NaN		     NaN		     NaN		     NaN		     NaN		  2.6467		  2.5411		  2.3850		  2.2125		  2.0418		  1.8700		  1.7083		  1.5564		  1.4098		  1.2795		  1.1638		  1.0508		  0.9520		  0.8536		  0.7733		  0.6988		  0.6335		  0.5810		  0.5341		
 1.280		     NaN		     NaN		     NaN		     NaN		     NaN		     NaN		     NaN		     NaN		     NaN		     NaN		     NaN		     NaN		     NaN		     NaN		     NaN		     NaN		     NaN		     NaN		     NaN		     NaN		     NaN		     NaN		     NaN		     NaN		     NaN		     NaN		     NaN		     NaN		     NaN		     NaN		     NaN		     NaN		  1.5846		     NaN		     NaN		     NaN		  2.5266		  2.4028		  2.2299		  2.0588		  1.8863		  1.7239		  1.5712		  1.4236		  1.2926		  1.1762		  1.0625		  0.9631		  0.8636		  0.7827		  0.7073		  0.6414		  0.5884		  0.5404		
 1.290		     NaN		     NaN		     NaN		     NaN		     NaN		     NaN		     NaN		     NaN		     NaN		     NaN		     NaN		     NaN		     NaN		     NaN		     NaN		     NaN		     NaN		     NaN		     NaN		     NaN		     NaN		     NaN		     NaN		     NaN		     NaN		     NaN		     NaN		     NaN		     NaN		     NaN		     NaN		     NaN		     NaN		     NaN		     NaN		     NaN		     NaN		     NaN		  2.2474		  2.0758		  1.9026		  1.7395		  1.5860		  1.4375		  1.3056		  1.1885		  1.0742		  0.9741		  0.8736		  0.7920		  0.7158		  0.6494		  0.5959		  0.5467		
 1.300		     NaN		     NaN		     NaN		     NaN		     NaN		     NaN		     NaN		     NaN		     NaN		     NaN		     NaN		     NaN		     NaN		     NaN		     NaN		     NaN		     NaN		     NaN		     NaN		     NaN		     NaN		     NaN		     NaN		     NaN		     NaN		     NaN		     NaN		     NaN		     NaN		     NaN		     NaN		     NaN		     NaN		     NaN		     NaN		     NaN		     NaN		     NaN		     NaN		     NaN		  1.9189		  1.7550		  1.6008		  1.4514		  1.3186		  1.2009		  1.0859		  0.9851		  0.8836		  0.8014		  0.7243		  0.6573		  0.6033		  0.5530		
 1.310		     NaN		     NaN		     NaN		     NaN		     NaN		     NaN		     NaN		     NaN		     NaN		     NaN		     NaN		     NaN		     NaN		     NaN		     NaN		     NaN		     NaN		     NaN		     NaN		     NaN		     NaN		     NaN		     NaN		     NaN		     NaN		     NaN		     NaN		     NaN		     NaN		     NaN		     NaN		     NaN		     NaN		     NaN		     NaN		     NaN		     NaN		     NaN		     NaN		     NaN		     NaN		     NaN		  1.6156		  1.4653		  1.3317		  1.2132		  1.0976		  0.9962		  0.8937		  0.8107		  0.7328		  0.6653		  0.6108		  0.5593		
 1.320		     NaN		     NaN		     NaN		     NaN		     NaN		     NaN		     NaN		     NaN		     NaN		     NaN		     NaN		     NaN		     NaN		     NaN		     NaN		     NaN		     NaN		     NaN		     NaN		     NaN		     NaN		     NaN		     NaN		     NaN		     NaN		     NaN		     NaN		     NaN		     NaN		     NaN		     NaN		     NaN		     NaN		     NaN		     NaN		     NaN		     NaN		     NaN		     NaN		     NaN		     NaN		     NaN		     NaN		     NaN		  1.3447		  1.2256		  1.1093		  1.0072		  0.9037		  0.8201		  0.7413		  0.6732		  0.6182		  0.5655		
 1.330		     NaN		     NaN		     NaN		     NaN		     NaN		     NaN		     NaN		     NaN		     NaN		     NaN		     NaN		     NaN		     NaN		     NaN		     NaN		     NaN		     NaN		     NaN		     NaN		     NaN		     NaN		     NaN		     NaN		     NaN		     NaN		     NaN		     NaN		     NaN		     NaN		     NaN		     NaN		     NaN		     NaN		     NaN		     NaN		     NaN		     NaN		     NaN		     NaN		     NaN		     NaN		     NaN		     NaN		     NaN		     NaN		     NaN		     NaN		  1.0183		  0.9137		  0.8294		  0.7498		  0.6812		  0.6257		  0.5718		
 1.340		     NaN		     NaN		     NaN		     NaN		     NaN		     NaN		     NaN		     NaN		     NaN		     NaN		     NaN		     NaN		     NaN		     NaN		     NaN		     NaN		     NaN		     NaN		     NaN		     NaN		     NaN		     NaN		     NaN		     NaN		     NaN		     NaN		     NaN		     NaN		     NaN		     NaN		     NaN		     NaN		     NaN		     NaN		     NaN		     NaN		     NaN		     NaN		     NaN		     NaN		     NaN		     NaN		     NaN		     NaN		     NaN		     NaN		     NaN		     NaN		     NaN		     NaN		     NaN		  0.6891		  0.6331		  0.5781		
 1.350		     NaN		     NaN		     NaN		     NaN		     NaN		     NaN		     NaN		     NaN		     NaN		     NaN		     NaN		     NaN		     NaN		     NaN		     NaN		     NaN		     NaN		     NaN		     NaN		     NaN		     NaN		     NaN		     NaN		     NaN		     NaN		     NaN		     NaN		     NaN		     NaN		     NaN		     NaN		     NaN		     NaN		     NaN		     NaN		     NaN		     NaN		     NaN		     NaN		     NaN		     NaN		     NaN		     NaN		     NaN		     NaN		     NaN		     NaN		     NaN		     NaN		     NaN		     NaN		     NaN		     NaN		     NaN		
