%H field first colomn	Temp row	DeltaTad array	Corrected for demagnetization using the Anaroni demagnetization factor	 NaN means no data	 Interpolated from 6 field measurement
0.0000		255			256			257			258			259			260			261			262			263			264			265			266			267			268			269			270			271			272			273			274			275			276			277			278			279			280			281			282			283			284			285			286			287			288			289			290			291			292			293			294			295			296			297			298			299			300			301			302			303			304			305			306			307			308			
 0.000		  0.0000		  0.0000		  0.0000		  0.0000		  0.0000		  0.0000		  0.0000		  0.0000		  0.0000		  0.0000		  0.0000		  0.0000		  0.0000		  0.0000		  0.0000		  0.0000		  0.0000		  0.0000		  0.0000		  0.0000		  0.0000		  0.0000		  0.0000		  0.0000		  0.0000		  0.0000		  0.0000		  0.0000		  0.0000		  0.0000		  0.0000		  0.0000		  0.0000		  0.0000		  0.0000		  0.0000		  0.0000		  0.0000		  0.0000		  0.0000		  0.0000		  0.0000		  0.0000		  0.0000		  0.0000		  0.0000		  0.0000		  0.0000		  0.0000		  0.0000		  0.0000		  0.0000		  0.0000		  0.0000		
 0.010		  0.0039		  0.0039		  0.0041		  0.0040		  0.0040		  0.0041		  0.0045		  0.0046		  0.0047		  0.0050		  0.0053		  0.0057		  0.0060		  0.0063		  0.0095		  0.0092		  0.0098		  0.0092		  0.0101		  0.0107		  0.0111		  0.0120		  0.0130		  0.0147		  0.0161		  0.0173		  0.0186		  0.0198		  0.0210		  0.0230		  0.0242		  0.0254		  0.0260		  0.0245		  0.0208		  0.0167		  0.0134		  0.0107		  0.0084		  0.0067		  0.0054		  0.0046		  0.0052		  0.0044		  0.0052		  0.0046		  0.0040		  0.0035		  0.0031		  0.0044		  0.0042		  0.0042		  0.0042		     NaN		
 0.020		  0.0077		  0.0079		  0.0081		  0.0079		  0.0080		  0.0083		  0.0089		  0.0091		  0.0095		  0.0099		  0.0105		  0.0115		  0.0119		  0.0126		  0.0189		  0.0184		  0.0195		  0.0185		  0.0202		  0.0214		  0.0222		  0.0241		  0.0260		  0.0294		  0.0323		  0.0346		  0.0373		  0.0396		  0.0419		  0.0461		  0.0484		  0.0509		  0.0520		  0.0490		  0.0417		  0.0335		  0.0268		  0.0214		  0.0169		  0.0133		  0.0107		  0.0092		  0.0104		  0.0088		  0.0104		  0.0091		  0.0079		  0.0070		  0.0062		  0.0088		  0.0084		  0.0084		  0.0084		     NaN		
 0.030		  0.0116		  0.0118		  0.0122		  0.0119		  0.0120		  0.0124		  0.0134		  0.0137		  0.0142		  0.0149		  0.0158		  0.0172		  0.0179		  0.0190		  0.0284		  0.0275		  0.0293		  0.0277		  0.0302		  0.0321		  0.0333		  0.0361		  0.0390		  0.0440		  0.0484		  0.0519		  0.0559		  0.0594		  0.0629		  0.0691		  0.0726		  0.0763		  0.0780		  0.0734		  0.0625		  0.0502		  0.0401		  0.0322		  0.0253		  0.0200		  0.0161		  0.0139		  0.0156		  0.0133		  0.0156		  0.0137		  0.0119		  0.0105		  0.0094		  0.0132		  0.0127		  0.0127		  0.0127		     NaN		
 0.040		  0.0155		  0.0158		  0.0162		  0.0158		  0.0160		  0.0165		  0.0179		  0.0182		  0.0189		  0.0198		  0.0210		  0.0229		  0.0239		  0.0253		  0.0378		  0.0367		  0.0390		  0.0369		  0.0403		  0.0428		  0.0444		  0.0481		  0.0519		  0.0587		  0.0646		  0.0692		  0.0745		  0.0791		  0.0839		  0.0921		  0.0968		  0.1017		  0.1040		  0.0979		  0.0834		  0.0670		  0.0535		  0.0429		  0.0338		  0.0266		  0.0214		  0.0185		  0.0207		  0.0177		  0.0208		  0.0182		  0.0158		  0.0140		  0.0125		  0.0175		  0.0169		  0.0169		  0.0169		     NaN		
 0.050		  0.0193		  0.0197		  0.0203		  0.0198		  0.0201		  0.0206		  0.0224		  0.0228		  0.0236		  0.0248		  0.0263		  0.0286		  0.0298		  0.0316		  0.0473		  0.0459		  0.0488		  0.0461		  0.0504		  0.0535		  0.0555		  0.0601		  0.0649		  0.0734		  0.0807		  0.0865		  0.0932		  0.0989		  0.1049		  0.1151		  0.1209		  0.1272		  0.1300		  0.1224		  0.1042		  0.0837		  0.0669		  0.0536		  0.0422		  0.0333		  0.0268		  0.0231		  0.0259		  0.0221		  0.0260		  0.0228		  0.0198		  0.0175		  0.0156		  0.0219		  0.0211		  0.0211		  0.0211		     NaN		
 0.060		  0.0232		  0.0236		  0.0244		  0.0237		  0.0241		  0.0248		  0.0268		  0.0273		  0.0284		  0.0297		  0.0315		  0.0344		  0.0358		  0.0379		  0.0568		  0.0551		  0.0585		  0.0554		  0.0605		  0.0642		  0.0666		  0.0722		  0.0779		  0.0881		  0.0969		  0.1038		  0.1118		  0.1187		  0.1258		  0.1382		  0.1451		  0.1526		  0.1561		  0.1469		  0.1251		  0.1005		  0.0803		  0.0643		  0.0507		  0.0400		  0.0321		  0.0277		  0.0311		  0.0265		  0.0312		  0.0273		  0.0238		  0.0210		  0.0187		  0.0263		  0.0253		  0.0253		  0.0253		     NaN		
 0.070		  0.0271		  0.0276		  0.0284		  0.0277		  0.0281		  0.0289		  0.0313		  0.0319		  0.0331		  0.0347		  0.0368		  0.0401		  0.0418		  0.0443		  0.0662		  0.0643		  0.0683		  0.0646		  0.0706		  0.0749		  0.0777		  0.0842		  0.0909		  0.1027		  0.1130		  0.1211		  0.1305		  0.1385		  0.1468		  0.1612		  0.1693		  0.1780		  0.1821		  0.1714		  0.1459		  0.1172		  0.0937		  0.0751		  0.0591		  0.0466		  0.0375		  0.0323		  0.0363		  0.0309		  0.0364		  0.0319		  0.0277		  0.0245		  0.0219		  0.0307		  0.0295		  0.0295		  0.0295		     NaN		
 0.080		  0.0309		  0.0315		  0.0325		  0.0316		  0.0321		  0.0330		  0.0358		  0.0365		  0.0378		  0.0397		  0.0420		  0.0458		  0.0477		  0.0506		  0.0757		  0.0734		  0.0780		  0.0738		  0.0807		  0.0856		  0.0888		  0.0962		  0.1039		  0.1174		  0.1292		  0.1384		  0.1491		  0.1583		  0.1678		  0.1842		  0.1935		  0.2035		  0.2081		  0.1958		  0.1668		  0.1340		  0.1071		  0.0858		  0.0676		  0.0533		  0.0428		  0.0369		  0.0415		  0.0353		  0.0416		  0.0365		  0.0317		  0.0280		  0.0250		  0.0351		  0.0337		  0.0337		  0.0337		     NaN		
 0.090		  0.0348		  0.0355		  0.0365		  0.0356		  0.0361		  0.0371		  0.0403		  0.0410		  0.0426		  0.0446		  0.0473		  0.0515		  0.0537		  0.0569		  0.0851		  0.0826		  0.0878		  0.0830		  0.0907		  0.0963		  0.0999		  0.1082		  0.1169		  0.1321		  0.1453		  0.1557		  0.1677		  0.1781		  0.1887		  0.2072		  0.2177		  0.2289		  0.2341		  0.2203		  0.1876		  0.1507		  0.1204		  0.0965		  0.0760		  0.0600		  0.0482		  0.0416		  0.0467		  0.0398		  0.0468		  0.0410		  0.0357		  0.0316		  0.0281		  0.0395		  0.0380		  0.0380		  0.0380		     NaN		
 0.100		  0.0387		  0.0394		  0.0406		  0.0395		  0.0401		  0.0413		  0.0447		  0.0456		  0.0473		  0.0496		  0.0525		  0.0573		  0.0597		  0.0632		  0.0946		  0.0918		  0.0975		  0.0923		  0.1008		  0.1070		  0.1110		  0.1203		  0.1298		  0.1468		  0.1614		  0.1730		  0.1864		  0.1979		  0.2097		  0.2303		  0.2419		  0.2543		  0.2601		  0.2448		  0.2085		  0.1675		  0.1338		  0.1072		  0.0845		  0.0666		  0.0535		  0.0462		  0.0519		  0.0442		  0.0521		  0.0456		  0.0396		  0.0351		  0.0312		  0.0439		  0.0422		  0.0422		  0.0422		     NaN		
 0.110		  0.0425		  0.0434		  0.0447		  0.0435		  0.0441		  0.0454		  0.0492		  0.0501		  0.0520		  0.0545		  0.0578		  0.0630		  0.0656		  0.0696		  0.1041		  0.1010		  0.1073		  0.1015		  0.1109		  0.1177		  0.1221		  0.1323		  0.1428		  0.1614		  0.1776		  0.1903		  0.2050		  0.2177		  0.2307		  0.2533		  0.2661		  0.2798		  0.2861		  0.2693		  0.2293		  0.1842		  0.1472		  0.1180		  0.0929		  0.0733		  0.0589		  0.0508		  0.0570		  0.0486		  0.0573		  0.0501		  0.0436		  0.0386		  0.0344		  0.0482		  0.0464		  0.0464		  0.0464		     NaN		
 0.120		  0.0464		  0.0473		  0.0487		  0.0475		  0.0481		  0.0495		  0.0537		  0.0547		  0.0567		  0.0595		  0.0630		  0.0687		  0.0716		  0.0759		  0.1107		  0.1086		  0.1160		  0.1106		  0.1210		  0.1283		  0.1332		  0.1443		  0.1558		  0.1761		  0.1937		  0.2076		  0.2236		  0.2374		  0.2517		  0.2763		  0.2903		  0.3052		  0.3121		  0.2937		  0.2502		  0.2010		  0.1606		  0.1287		  0.1014		  0.0799		  0.0642		  0.0554		  0.0622		  0.0530		  0.0625		  0.0547		  0.0475		  0.0421		  0.0375		  0.0526		  0.0506		  0.0506		  0.0506		     NaN		
 0.130		  0.0503		  0.0512		  0.0528		  0.0514		  0.0522		  0.0536		  0.0581		  0.0592		  0.0615		  0.0644		  0.0683		  0.0744		  0.0776		  0.0822		  0.1162		  0.1147		  0.1228		  0.1185		  0.1297		  0.1379		  0.1439		  0.1562		  0.1688		  0.1908		  0.2099		  0.2249		  0.2423		  0.2572		  0.2726		  0.2993		  0.3144		  0.3306		  0.3381		  0.3182		  0.2710		  0.2177		  0.1740		  0.1394		  0.1098		  0.0866		  0.0696		  0.0600		  0.0674		  0.0574		  0.0677		  0.0592		  0.0515		  0.0456		  0.0406		  0.0570		  0.0548		  0.0548		  0.0548		     NaN		
 0.140		  0.0542		  0.0552		  0.0568		  0.0554		  0.0562		  0.0578		  0.0626		  0.0638		  0.0662		  0.0694		  0.0735		  0.0802		  0.0835		  0.0885		  0.1217		  0.1208		  0.1296		  0.1265		  0.1381		  0.1467		  0.1539		  0.1670		  0.1804		  0.2045		  0.2260		  0.2422		  0.2609		  0.2770		  0.2936		  0.3224		  0.3386		  0.3561		  0.3641		  0.3427		  0.2918		  0.2345		  0.1874		  0.1501		  0.1182		  0.0933		  0.0750		  0.0646		  0.0726		  0.0618		  0.0729		  0.0638		  0.0555		  0.0491		  0.0437		  0.0614		  0.0590		  0.0590		  0.0590		     NaN		
 0.150		  0.0580		  0.0591		  0.0609		  0.0593		  0.0602		  0.0619		  0.0671		  0.0684		  0.0709		  0.0744		  0.0788		  0.0859		  0.0895		  0.0949		  0.1272		  0.1269		  0.1364		  0.1344		  0.1465		  0.1555		  0.1639		  0.1779		  0.1916		  0.2167		  0.2389		  0.2575		  0.2794		  0.2968		  0.3146		  0.3454		  0.3628		  0.3815		  0.3901		  0.3672		  0.3127		  0.2512		  0.2007		  0.1609		  0.1267		  0.0999		  0.0803		  0.0693		  0.0778		  0.0663		  0.0781		  0.0684		  0.0594		  0.0526		  0.0469		  0.0658		  0.0633		  0.0633		  0.0633		     NaN		
 0.160		  0.0619		  0.0631		  0.0649		  0.0633		  0.0642		  0.0660		  0.0716		  0.0729		  0.0757		  0.0793		  0.0840		  0.0916		  0.0955		  0.1012		  0.1327		  0.1330		  0.1431		  0.1424		  0.1549		  0.1643		  0.1739		  0.1887		  0.2028		  0.2289		  0.2519		  0.2713		  0.2948		  0.3153		  0.3356		  0.3684		  0.3870		  0.4069		  0.4161		  0.3917		  0.3335		  0.2680		  0.2141		  0.1716		  0.1351		  0.1066		  0.0857		  0.0739		  0.0830		  0.0707		  0.0833		  0.0729		  0.0634		  0.0561		  0.0500		  0.0702		  0.0675		  0.0675		  0.0675		     NaN		
 0.170		  0.0658		  0.0670		  0.0690		  0.0672		  0.0682		  0.0701		  0.0760		  0.0775		  0.0804		  0.0843		  0.0893		  0.0973		  0.1014		  0.1075		  0.1381		  0.1391		  0.1499		  0.1503		  0.1633		  0.1732		  0.1839		  0.1995		  0.2139		  0.2411		  0.2649		  0.2850		  0.3101		  0.3323		  0.3539		  0.3908		  0.4112		  0.4323		  0.4421		  0.4161		  0.3544		  0.2847		  0.2275		  0.1823		  0.1436		  0.1133		  0.0910		  0.0785		  0.0882		  0.0751		  0.0885		  0.0775		  0.0673		  0.0596		  0.0531		  0.0746		  0.0717		  0.0717		  0.0717		     NaN		
 0.180		  0.0696		  0.0709		  0.0731		  0.0712		  0.0722		  0.0743		  0.0805		  0.0820		  0.0851		  0.0892		  0.0945		  0.1031		  0.1074		  0.1138		  0.1436		  0.1452		  0.1567		  0.1583		  0.1717		  0.1820		  0.1939		  0.2103		  0.2251		  0.2533		  0.2778		  0.2988		  0.3254		  0.3494		  0.3718		  0.4096		  0.4339		  0.4578		  0.4682		  0.4406		  0.3752		  0.3015		  0.2409		  0.1930		  0.1520		  0.1199		  0.0964		  0.0831		  0.0933		  0.0795		  0.0937		  0.0820		  0.0713		  0.0631		  0.0562		  0.0789		  0.0759		  0.0759		  0.0759		     NaN		
 0.190		  0.0735		  0.0749		  0.0771		  0.0751		  0.0762		  0.0784		  0.0850		  0.0866		  0.0898		  0.0942		  0.0998		  0.1088		  0.1134		  0.1202		  0.1491		  0.1513		  0.1635		  0.1662		  0.1802		  0.1908		  0.2040		  0.2212		  0.2363		  0.2655		  0.2908		  0.3126		  0.3408		  0.3665		  0.3897		  0.4284		  0.4544		  0.4804		  0.4942		  0.4651		  0.3961		  0.3182		  0.2543		  0.2038		  0.1605		  0.1266		  0.1017		  0.0877		  0.0985		  0.0839		  0.0989		  0.0866		  0.0753		  0.0666		  0.0593		  0.0833		  0.0801		  0.0801		  0.0801		     NaN		
 0.200		  0.0774		  0.0788		  0.0812		  0.0791		  0.0802		  0.0825		  0.0895		  0.0911		  0.0946		  0.0992		  0.1050		  0.1145		  0.1193		  0.1265		  0.1546		  0.1574		  0.1702		  0.1742		  0.1886		  0.1997		  0.2140		  0.2320		  0.2475		  0.2777		  0.3038		  0.3263		  0.3561		  0.3835		  0.4076		  0.4472		  0.4748		  0.5012		  0.5160		  0.4891		  0.4169		  0.3350		  0.2677		  0.2145		  0.1689		  0.1332		  0.1071		  0.0923		  0.1037		  0.0883		  0.1041		  0.0911		  0.0792		  0.0701		  0.0625		  0.0877		  0.0844		  0.0844		  0.0844		     NaN		
 0.210		  0.0812		  0.0828		  0.0852		  0.0830		  0.0843		  0.0866		  0.0939		  0.0957		  0.0993		  0.1041		  0.1103		  0.1202		  0.1253		  0.1328		  0.1601		  0.1635		  0.1770		  0.1821		  0.1970		  0.2085		  0.2240		  0.2428		  0.2587		  0.2899		  0.3167		  0.3401		  0.3715		  0.4006		  0.4255		  0.4660		  0.4953		  0.5220		  0.5372		  0.5094		  0.4368		  0.3517		  0.2810		  0.2252		  0.1774		  0.1399		  0.1124		  0.0970		  0.1089		  0.0928		  0.1093		  0.0957		  0.0832		  0.0736		  0.0656		  0.0921		  0.0886		  0.0886		  0.0886		     NaN		
 0.220		  0.0851		  0.0867		  0.0893		  0.0870		  0.0883		  0.0908		  0.0984		  0.1002		  0.1040		  0.1091		  0.1155		  0.1260		  0.1313		  0.1391		  0.1655		  0.1696		  0.1838		  0.1901		  0.2054		  0.2173		  0.2340		  0.2536		  0.2698		  0.3021		  0.3297		  0.3539		  0.3868		  0.4176		  0.4433		  0.4848		  0.5158		  0.5428		  0.5583		  0.5298		  0.4554		  0.3692		  0.2952		  0.2359		  0.1858		  0.1466		  0.1178		  0.1016		  0.1141		  0.0972		  0.1145		  0.1003		  0.0872		  0.0771		  0.0687		  0.0965		  0.0928		  0.0928		  0.0928		     NaN		
 0.230		  0.0890		  0.0906		  0.0934		  0.0910		  0.0923		  0.0949		  0.1029		  0.1048		  0.1088		  0.1140		  0.1208		  0.1317		  0.1372		  0.1455		  0.1710		  0.1757		  0.1905		  0.1980		  0.2138		  0.2262		  0.2440		  0.2645		  0.2810		  0.3143		  0.3427		  0.3677		  0.4021		  0.4347		  0.4612		  0.5036		  0.5363		  0.5637		  0.5795		  0.5502		  0.4741		  0.3869		  0.3109		  0.2495		  0.1963		  0.1541		  0.1231		  0.1062		  0.1193		  0.1016		  0.1197		  0.1048		  0.0911		  0.0806		  0.0718		  0.1009		  0.0970		  0.0970		  0.0970		     NaN		
 0.240		  0.0928		  0.0946		  0.0974		  0.0949		  0.0963		  0.0990		  0.1073		  0.1094		  0.1135		  0.1190		  0.1260		  0.1374		  0.1432		  0.1518		  0.1765		  0.1818		  0.1973		  0.2059		  0.2223		  0.2350		  0.2540		  0.2753		  0.2922		  0.3265		  0.3557		  0.3814		  0.4175		  0.4517		  0.4791		  0.5224		  0.5567		  0.5845		  0.6007		  0.5706		  0.4927		  0.4045		  0.3266		  0.2635		  0.2084		  0.1648		  0.1321		  0.1131		  0.1244		  0.1060		  0.1249		  0.1094		  0.0951		  0.0841		  0.0750		  0.1052		  0.1012		  0.1012		  0.1012		     NaN		
 0.250		  0.0967		  0.0985		  0.1015		  0.0989		  0.1003		  0.1032		  0.1118		  0.1139		  0.1182		  0.1239		  0.1313		  0.1431		  0.1491		  0.1581		  0.1820		  0.1879		  0.2041		  0.2139		  0.2307		  0.2438		  0.2640		  0.2861		  0.3034		  0.3387		  0.3686		  0.3952		  0.4328		  0.4688		  0.4970		  0.5413		  0.5772		  0.6053		  0.6218		  0.5910		  0.5113		  0.4222		  0.3423		  0.2774		  0.2205		  0.1754		  0.1412		  0.1207		  0.1296		  0.1104		  0.1301		  0.1139		  0.0990		  0.0877		  0.0781		  0.1096		  0.1054		  0.1054		  0.1054		     NaN		
 0.260		  0.1006		  0.1025		  0.1055		  0.1028		  0.1043		  0.1073		  0.1163		  0.1185		  0.1229		  0.1289		  0.1366		  0.1489		  0.1551		  0.1644		  0.1874		  0.1940		  0.2109		  0.2218		  0.2391		  0.2527		  0.2740		  0.2969		  0.3146		  0.3509		  0.3816		  0.4090		  0.4482		  0.4858		  0.5149		  0.5601		  0.5977		  0.6261		  0.6430		  0.6114		  0.5300		  0.4398		  0.3581		  0.2914		  0.2327		  0.1860		  0.1503		  0.1283		  0.1348		  0.1148		  0.1353		  0.1185		  0.1030		  0.0912		  0.0812		  0.1140		  0.1097		  0.1097		  0.1097		     NaN		
 0.270		  0.1044		  0.1064		  0.1096		  0.1068		  0.1083		  0.1114		  0.1208		  0.1230		  0.1277		  0.1339		  0.1418		  0.1546		  0.1611		  0.1708		  0.1929		  0.2001		  0.2176		  0.2298		  0.2475		  0.2615		  0.2840		  0.3078		  0.3257		  0.3631		  0.3946		  0.4228		  0.4635		  0.5029		  0.5328		  0.5789		  0.6182		  0.6469		  0.6642		  0.6318		  0.5486		  0.4575		  0.3738		  0.3053		  0.2448		  0.1966		  0.1594		  0.1358		  0.1400		  0.1193		  0.1405		  0.1230		  0.1070		  0.0947		  0.0843		  0.1184		  0.1139		  0.1139		  0.1139		     NaN		
 0.280		  0.1083		  0.1104		  0.1137		  0.1107		  0.1123		  0.1155		  0.1252		  0.1276		  0.1324		  0.1388		  0.1471		  0.1603		  0.1670		  0.1771		  0.1984		  0.2062		  0.2244		  0.2377		  0.2559		  0.2703		  0.2940		  0.3186		  0.3369		  0.3753		  0.4075		  0.4365		  0.4788		  0.5200		  0.5507		  0.5977		  0.6386		  0.6677		  0.6853		  0.6521		  0.5672		  0.4751		  0.3895		  0.3193		  0.2569		  0.2072		  0.1685		  0.1434		  0.1452		  0.1237		  0.1458		  0.1276		  0.1109		  0.0982		  0.0875		  0.1228		  0.1181		  0.1181		  0.1181		     NaN		
 0.290		  0.1122		  0.1143		  0.1177		  0.1147		  0.1164		  0.1197		  0.1297		  0.1321		  0.1371		  0.1438		  0.1523		  0.1660		  0.1730		  0.1834		  0.2039		  0.2123		  0.2312		  0.2457		  0.2644		  0.2792		  0.3040		  0.3294		  0.3481		  0.3875		  0.4205		  0.4503		  0.4942		  0.5370		  0.5686		  0.6165		  0.6591		  0.6885		  0.7065		  0.6725		  0.5858		  0.4928		  0.4052		  0.3332		  0.2691		  0.2179		  0.1776		  0.1510		  0.1504		  0.1281		  0.1510		  0.1321		  0.1149		  0.1017		  0.0906		  0.1272		  0.1223		  0.1223		  0.1223		     NaN		
 0.300		  0.1160		  0.1182		  0.1218		  0.1186		  0.1204		  0.1238		  0.1342		  0.1367		  0.1419		  0.1487		  0.1576		  0.1718		  0.1790		  0.1897		  0.2094		  0.2184		  0.2380		  0.2536		  0.2728		  0.2880		  0.3140		  0.3402		  0.3593		  0.3997		  0.4335		  0.4641		  0.5095		  0.5541		  0.5864		  0.6353		  0.6796		  0.7093		  0.7277		  0.6929		  0.6045		  0.5104		  0.4209		  0.3471		  0.2812		  0.2285		  0.1867		  0.1586		  0.1556		  0.1325		  0.1562		  0.1367		  0.1188		  0.1052		  0.0937		  0.1316		  0.1265		  0.1265		  0.1265		     NaN		
 0.310		  0.1199		  0.1222		  0.1258		  0.1226		  0.1244		  0.1279		  0.1387		  0.1413		  0.1466		  0.1537		  0.1628		  0.1775		  0.1849		  0.1961		  0.2148		  0.2245		  0.2447		  0.2616		  0.2812		  0.2968		  0.3241		  0.3511		  0.3705		  0.4119		  0.4464		  0.4778		  0.5249		  0.5711		  0.6043		  0.6541		  0.7001		  0.7302		  0.7489		  0.7133		  0.6231		  0.5281		  0.4366		  0.3611		  0.2934		  0.2391		  0.1958		  0.1662		  0.1607		  0.1369		  0.1614		  0.1413		  0.1228		  0.1087		  0.0968		  0.1359		  0.1308		  0.1308		  0.1308		     NaN		
 0.320		  0.1238		  0.1261		  0.1299		  0.1266		  0.1284		  0.1320		  0.1431		  0.1458		  0.1513		  0.1586		  0.1681		  0.1832		  0.1909		  0.2024		  0.2203		  0.2306		  0.2515		  0.2695		  0.2896		  0.3056		  0.3341		  0.3619		  0.3817		  0.4241		  0.4594		  0.4916		  0.5402		  0.5882		  0.6222		  0.6729		  0.7205		  0.7510		  0.7700		  0.7337		  0.6417		  0.5457		  0.4523		  0.3750		  0.3055		  0.2497		  0.2050		  0.1738		  0.1659		  0.1413		  0.1666		  0.1458		  0.1268		  0.1122		  0.1000		  0.1403		  0.1350		  0.1350		  0.1350		     NaN		
 0.330		  0.1276		  0.1301		  0.1340		  0.1305		  0.1324		  0.1362		  0.1476		  0.1504		  0.1560		  0.1636		  0.1733		  0.1889		  0.1969		  0.2087		  0.2258		  0.2367		  0.2583		  0.2775		  0.2980		  0.3145		  0.3441		  0.3727		  0.3928		  0.4363		  0.4724		  0.5054		  0.5555		  0.6052		  0.6401		  0.6917		  0.7410		  0.7718		  0.7912		  0.7541		  0.6604		  0.5634		  0.4681		  0.3890		  0.3176		  0.2603		  0.2141		  0.1814		  0.1711		  0.1458		  0.1718		  0.1504		  0.1307		  0.1157		  0.1031		  0.1447		  0.1392		  0.1392		  0.1392		     NaN		
 0.340		  0.1304		  0.1331		  0.1371		  0.1340		  0.1362		  0.1401		  0.1519		  0.1549		  0.1608		  0.1686		  0.1786		  0.1947		  0.2028		  0.2150		  0.2313		  0.2428		  0.2651		  0.2854		  0.3064		  0.3233		  0.3541		  0.3835		  0.4040		  0.4485		  0.4853		  0.5192		  0.5709		  0.6223		  0.6580		  0.7105		  0.7615		  0.7926		  0.8124		  0.7745		  0.6790		  0.5810		  0.4838		  0.4029		  0.3298		  0.2710		  0.2232		  0.1890		  0.1763		  0.1502		  0.1770		  0.1549		  0.1347		  0.1192		  0.1062		  0.1491		  0.1434		  0.1434		  0.1434		     NaN		
 0.350		  0.1326		  0.1355		  0.1395		  0.1368		  0.1395		  0.1436		  0.1553		  0.1589		  0.1652		  0.1731		  0.1835		  0.2000		  0.2086		  0.2213		  0.2368		  0.2489		  0.2718		  0.2934		  0.3149		  0.3321		  0.3641		  0.3944		  0.4152		  0.4607		  0.4983		  0.5329		  0.5862		  0.6393		  0.6759		  0.7293		  0.7819		  0.8134		  0.8335		  0.7949		  0.6976		  0.5987		  0.4995		  0.4168		  0.3419		  0.2816		  0.2323		  0.1966		  0.1815		  0.1546		  0.1822		  0.1595		  0.1387		  0.1227		  0.1093		  0.1535		  0.1476		  0.1476		  0.1476		     NaN		
 0.360		  0.1349		  0.1379		  0.1420		  0.1396		  0.1427		  0.1471		  0.1588		  0.1628		  0.1695		  0.1776		  0.1882		  0.2049		  0.2142		  0.2272		  0.2430		  0.2558		  0.2789		  0.3011		  0.3231		  0.3410		  0.3741		  0.4052		  0.4264		  0.4729		  0.5113		  0.5467		  0.6016		  0.6564		  0.6938		  0.7481		  0.8024		  0.8342		  0.8547		  0.8152		  0.7162		  0.6163		  0.5152		  0.4308		  0.3540		  0.2922		  0.2414		  0.2042		  0.1867		  0.1590		  0.1874		  0.1640		  0.1426		  0.1262		  0.1124		  0.1579		  0.1518		  0.1518		  0.1518		     NaN		
 0.370		  0.1371		  0.1403		  0.1444		  0.1424		  0.1460		  0.1506		  0.1622		  0.1668		  0.1739		  0.1820		  0.1930		  0.2099		  0.2197		  0.2331		  0.2493		  0.2627		  0.2861		  0.3085		  0.3307		  0.3495		  0.3832		  0.4155		  0.4375		  0.4851		  0.5243		  0.5605		  0.6169		  0.6735		  0.7117		  0.7669		  0.8229		  0.8550		  0.8759		  0.8356		  0.7349		  0.6340		  0.5309		  0.4447		  0.3662		  0.3028		  0.2505		  0.2118		  0.1919		  0.1634		  0.1926		  0.1686		  0.1466		  0.1297		  0.1156		  0.1623		  0.1561		  0.1561		  0.1561		     NaN		
 0.380		  0.1394		  0.1427		  0.1468		  0.1452		  0.1493		  0.1541		  0.1656		  0.1707		  0.1782		  0.1865		  0.1977		  0.2148		  0.2253		  0.2390		  0.2555		  0.2697		  0.2934		  0.3160		  0.3384		  0.3579		  0.3918		  0.4248		  0.4480		  0.4965		  0.5369		  0.5742		  0.6322		  0.6905		  0.7296		  0.7857		  0.8434		  0.8759		  0.8970		  0.8560		  0.7535		  0.6516		  0.5466		  0.4587		  0.3783		  0.3134		  0.2596		  0.2194		  0.1970		  0.1678		  0.1978		  0.1732		  0.1505		  0.1332		  0.1187		  0.1666		  0.1603		  0.1603		  0.1603		     NaN		
 0.390		  0.1416		  0.1451		  0.1492		  0.1480		  0.1525		  0.1576		  0.1690		  0.1747		  0.1826		  0.1909		  0.2024		  0.2197		  0.2308		  0.2449		  0.2617		  0.2767		  0.3006		  0.3234		  0.3460		  0.3664		  0.4005		  0.4342		  0.4584		  0.5075		  0.5488		  0.5878		  0.6473		  0.7076		  0.7474		  0.8045		  0.8638		  0.8967		  0.9182		  0.8764		  0.7721		  0.6693		  0.5624		  0.4726		  0.3905		  0.3241		  0.2687		  0.2270		  0.2022		  0.1723		  0.2030		  0.1777		  0.1545		  0.1367		  0.1218		  0.1710		  0.1645		  0.1645		     NaN		     NaN		
 0.400		  0.1438		  0.1475		  0.1516		  0.1508		  0.1558		  0.1610		  0.1725		  0.1786		  0.1870		  0.1954		  0.2072		  0.2247		  0.2363		  0.2509		  0.2680		  0.2837		  0.3078		  0.3308		  0.3536		  0.3749		  0.4091		  0.4436		  0.4688		  0.5184		  0.5608		  0.6013		  0.6617		  0.7232		  0.7650		  0.8233		  0.8843		  0.9175		  0.9394		  0.8968		  0.7908		  0.6869		  0.5781		  0.4866		  0.4026		  0.3347		  0.2778		  0.2346		  0.2074		  0.1767		  0.2082		  0.1823		  0.1585		  0.1402		  0.1249		  0.1754		  0.1687		  0.1687		     NaN		     NaN		
 0.410		  0.1461		  0.1499		  0.1540		  0.1536		  0.1591		  0.1645		  0.1759		  0.1826		  0.1913		  0.1998		  0.2119		  0.2296		  0.2419		  0.2568		  0.2742		  0.2907		  0.3150		  0.3383		  0.3612		  0.3834		  0.4178		  0.4530		  0.4793		  0.5294		  0.5727		  0.6148		  0.6762		  0.7385		  0.7817		  0.8417		  0.9048		  0.9383		  0.9605		  0.9172		  0.8094		  0.7046		  0.5938		  0.5005		  0.4147		  0.3453		  0.2869		  0.2421		  0.2126		  0.1811		  0.2134		  0.1868		  0.1624		  0.1438		  0.1281		  0.1798		  0.1729		  0.1729		     NaN		     NaN		
 0.420		  0.1483		  0.1523		  0.1564		  0.1565		  0.1624		  0.1680		  0.1793		  0.1865		  0.1957		  0.2043		  0.2167		  0.2346		  0.2474		  0.2627		  0.2804		  0.2977		  0.3223		  0.3457		  0.3688		  0.3919		  0.4264		  0.4623		  0.4897		  0.5404		  0.5846		  0.6283		  0.6906		  0.7538		  0.7984		  0.8600		  0.9240		  0.9589		  0.9817		  0.9376		  0.8280		  0.7222		  0.6095		  0.5144		  0.4269		  0.3559		  0.2960		  0.2497		  0.2178		  0.1855		  0.2186		  0.1914		  0.1664		  0.1473		  0.1312		  0.1842		  0.1771		  0.1771		     NaN		     NaN		
 0.430		  0.1506		  0.1547		  0.1588		  0.1593		  0.1656		  0.1715		  0.1827		  0.1905		  0.2000		  0.2087		  0.2214		  0.2395		  0.2529		  0.2686		  0.2867		  0.3046		  0.3295		  0.3532		  0.3764		  0.4003		  0.4351		  0.4717		  0.5002		  0.5514		  0.5965		  0.6418		  0.7051		  0.7691		  0.8151		  0.8782		  0.9432		  0.9790		  1.0022		  0.9579		  0.8466		  0.7399		  0.6252		  0.5284		  0.4390		  0.3665		  0.3051		  0.2573		  0.2230		  0.1899		  0.2238		  0.1959		  0.1703		  0.1508		  0.1343		  0.1886		  0.1814		  0.1814		     NaN		     NaN		
 0.440		  0.1528		  0.1571		  0.1612		  0.1621		  0.1689		  0.1750		  0.1862		  0.1944		  0.2044		  0.2132		  0.2261		  0.2445		  0.2585		  0.2745		  0.2929		  0.3116		  0.3367		  0.3606		  0.3840		  0.4088		  0.4437		  0.4811		  0.5106		  0.5623		  0.6085		  0.6553		  0.7196		  0.7844		  0.8317		  0.8964		  0.9623		  0.9991		  1.0223		  0.9780		  0.8654		  0.7575		  0.6409		  0.5423		  0.4512		  0.3772		  0.3142		  0.2649		  0.2282		  0.1943		  0.2290		  0.2005		  0.1743		  0.1543		  0.1374		  0.1930		  0.1856		  0.1856		     NaN		     NaN		
 0.450		  0.1551		  0.1595		  0.1636		  0.1649		  0.1722		  0.1785		  0.1896		  0.1984		  0.2088		  0.2176		  0.2309		  0.2494		  0.2640		  0.2804		  0.2991		  0.3186		  0.3439		  0.3680		  0.3916		  0.4173		  0.4524		  0.4905		  0.5210		  0.5733		  0.6204		  0.6688		  0.7340		  0.7997		  0.8484		  0.9147		  0.9815		  1.0191		  1.0424		  0.9979		  0.8849		  0.7755		  0.6567		  0.5563		  0.4633		  0.3878		  0.3233		  0.2725		  0.2333		  0.1988		  0.2342		  0.2051		  0.1783		  0.1578		  0.1406		  0.1973		  0.1898		  0.1898		     NaN		     NaN		
 0.460		  0.1573		  0.1619		  0.1660		  0.1677		  0.1754		  0.1820		  0.1930		  0.2024		  0.2131		  0.2221		  0.2356		  0.2543		  0.2695		  0.2863		  0.3054		  0.3256		  0.3512		  0.3755		  0.3993		  0.4258		  0.4610		  0.4998		  0.5315		  0.5843		  0.6323		  0.6823		  0.7485		  0.8151		  0.8651		  0.9329		  1.0007		  1.0392		  1.0624		  1.0179		  0.9043		  0.7938		  0.6743		  0.5713		  0.4756		  0.3984		  0.3324		  0.2801		  0.2385		  0.2032		  0.2395		  0.2096		  0.1822		  0.1613		  0.1437		  0.2017		  0.1940		  0.1940		     NaN		     NaN		
 0.470		  0.1596		  0.1643		  0.1684		  0.1705		  0.1787		  0.1854		  0.1965		  0.2063		  0.2175		  0.2266		  0.2404		  0.2593		  0.2751		  0.2923		  0.3116		  0.3326		  0.3584		  0.3829		  0.4069		  0.4343		  0.4697		  0.5092		  0.5419		  0.5953		  0.6443		  0.6958		  0.7629		  0.8304		  0.8818		  0.9511		  1.0199		  1.0593		  1.0825		  1.0378		  0.9238		  0.8121		  0.6919		  0.5873		  0.4903		  0.4108		  0.3425		  0.2878		  0.2437		  0.2076		  0.2447		  0.2142		  0.1862		  0.1648		  0.1468		  0.2061		  0.1982		  0.1982		     NaN		     NaN		
 0.480		  0.1618		  0.1667		  0.1708		  0.1733		  0.1820		  0.1889		  0.1999		  0.2103		  0.2218		  0.2310		  0.2451		  0.2642		  0.2806		  0.2982		  0.3178		  0.3395		  0.3656		  0.3903		  0.4145		  0.4427		  0.4783		  0.5186		  0.5524		  0.6063		  0.6562		  0.7093		  0.7774		  0.8457		  0.8985		  0.9694		  1.0391		  1.0794		  1.1026		  1.0578		  0.9433		  0.8304		  0.7096		  0.6033		  0.5051		  0.4240		  0.3546		  0.2988		  0.2525		  0.2145		  0.2499		  0.2187		  0.1902		  0.1683		  0.1499		  0.2105		  0.2025		  0.2025		     NaN		     NaN		
 0.490		  0.1641		  0.1691		  0.1732		  0.1761		  0.1853		  0.1924		  0.2033		  0.2142		  0.2262		  0.2355		  0.2498		  0.2692		  0.2862		  0.3041		  0.3241		  0.3465		  0.3729		  0.3978		  0.4221		  0.4512		  0.4870		  0.5280		  0.5628		  0.6172		  0.6681		  0.7229		  0.7919		  0.8610		  0.9152		  0.9876		  1.0582		  1.0994		  1.1226		  1.0777		  0.9628		  0.8487		  0.7272		  0.6193		  0.5199		  0.4373		  0.3666		  0.3098		  0.2623		  0.2232		  0.2551		  0.2233		  0.1941		  0.1718		  0.1531		  0.2149		  0.2067		  0.2067		     NaN		     NaN		
 0.500		  0.1663		  0.1715		  0.1756		  0.1789		  0.1885		  0.1959		  0.2067		  0.2182		  0.2306		  0.2399		  0.2546		  0.2741		  0.2917		  0.3100		  0.3303		  0.3535		  0.3801		  0.4052		  0.4297		  0.4597		  0.4956		  0.5373		  0.5732		  0.6282		  0.6800		  0.7364		  0.8063		  0.8763		  0.9319		  1.0058		  1.0774		  1.1195		  1.1427		  1.0977		  0.9822		  0.8669		  0.7448		  0.6354		  0.5346		  0.4505		  0.3787		  0.3207		  0.2721		  0.2320		  0.2603		  0.2278		  0.1981		  0.1753		  0.1562		  0.2193		  0.2109		  0.2109		     NaN		     NaN		
 0.510		  0.1685		  0.1739		  0.1780		  0.1817		  0.1918		  0.1994		  0.2102		  0.2221		  0.2349		  0.2444		  0.2593		  0.2791		  0.2972		  0.3159		  0.3365		  0.3605		  0.3873		  0.4127		  0.4373		  0.4682		  0.5043		  0.5467		  0.5837		  0.6392		  0.6920		  0.7499		  0.8208		  0.8916		  0.9485		  1.0241		  1.0966		  1.1396		  1.1627		  1.1176		  1.0017		  0.8852		  0.7625		  0.6514		  0.5494		  0.4638		  0.3907		  0.3317		  0.2819		  0.2408		  0.2655		  0.2324		  0.2020		  0.1788		  0.1593		  0.2237		  0.2151		  0.2151		     NaN		     NaN		
 0.520		  0.1708		  0.1763		  0.1804		  0.1846		  0.1951		  0.2029		  0.2136		  0.2261		  0.2393		  0.2488		  0.2641		  0.2840		  0.3028		  0.3218		  0.3428		  0.3675		  0.3945		  0.4201		  0.4449		  0.4766		  0.5129		  0.5561		  0.5941		  0.6502		  0.7039		  0.7634		  0.8352		  0.9069		  0.9652		  1.0423		  1.1158		  1.1597		  1.1828		  1.1376		  1.0212		  0.9035		  0.7801		  0.6674		  0.5641		  0.4771		  0.4028		  0.3427		  0.2917		  0.2495		  0.2707		  0.2370		  0.2060		  0.1823		  0.1624		  0.2280		  0.2193		  0.2193		     NaN		     NaN		
 0.530		  0.1730		  0.1787		  0.1828		  0.1874		  0.1983		  0.2063		  0.2170		  0.2300		  0.2436		  0.2533		  0.2688		  0.2889		  0.3083		  0.3278		  0.3490		  0.3745		  0.4018		  0.4275		  0.4526		  0.4851		  0.5216		  0.5655		  0.6046		  0.6612		  0.7158		  0.7769		  0.8497		  0.9223		  0.9819		  1.0606		  1.1349		  1.1797		  1.2029		  1.1575		  1.0406		  0.9218		  0.7977		  0.6834		  0.5789		  0.4903		  0.4148		  0.3536		  0.3015		  0.2583		  0.2759		  0.2415		  0.2100		  0.1858		  0.1655		  0.2324		  0.2235		  0.2235		     NaN		     NaN		
 0.540		  0.1753		  0.1811		  0.1852		  0.1902		  0.2016		  0.2098		  0.2204		  0.2340		  0.2480		  0.2577		  0.2735		  0.2939		  0.3138		  0.3337		  0.3552		  0.3814		  0.4090		  0.4350		  0.4602		  0.4936		  0.5302		  0.5749		  0.6150		  0.6721		  0.7278		  0.7904		  0.8642		  0.9376		  0.9986		  1.0788		  1.1541		  1.1998		  1.2229		  1.1775		  1.0601		  0.9401		  0.8154		  0.6995		  0.5936		  0.5036		  0.4269		  0.3646		  0.3113		  0.2670		  0.2811		  0.2461		  0.2139		  0.1893		  0.1687		  0.2368		  0.2278		  0.2278		     NaN		     NaN		
 0.550		  0.1775		  0.1835		  0.1876		  0.1930		  0.2049		  0.2133		  0.2239		  0.2380		  0.2524		  0.2622		  0.2783		  0.2988		  0.3194		  0.3396		  0.3615		  0.3884		  0.4162		  0.4424		  0.4678		  0.5021		  0.5389		  0.5842		  0.6254		  0.6831		  0.7397		  0.8039		  0.8786		  0.9529		  1.0153		  1.0970		  1.1733		  1.2199		  1.2430		  1.1975		  1.0796		  0.9584		  0.8330		  0.7155		  0.6084		  0.5168		  0.4389		  0.3755		  0.3210		  0.2758		  0.2863		  0.2506		  0.2179		  0.1928		  0.1718		  0.2412		  0.2320		  0.2320		     NaN		     NaN		
 0.560		  0.1798		  0.1859		  0.1900		  0.1958		  0.2082		  0.2168		  0.2273		  0.2419		  0.2567		  0.2666		  0.2830		  0.3038		  0.3249		  0.3455		  0.3677		  0.3954		  0.4235		  0.4499		  0.4754		  0.5106		  0.5475		  0.5936		  0.6359		  0.6941		  0.7516		  0.8174		  0.8931		  0.9682		  1.0320		  1.1153		  1.1925		  1.2400		  1.2631		  1.2174		  1.0990		  0.9766		  0.8506		  0.7315		  0.6232		  0.5301		  0.4510		  0.3865		  0.3308		  0.2845		  0.2915		  0.2552		  0.2218		  0.1963		  0.1749		  0.2456		  0.2362		  0.2362		     NaN		     NaN		
 0.570		  0.1820		  0.1883		  0.1924		  0.1986		  0.2114		  0.2203		  0.2307		  0.2459		  0.2611		  0.2711		  0.2878		  0.3087		  0.3304		  0.3514		  0.3739		  0.4024		  0.4307		  0.4573		  0.4830		  0.5190		  0.5562		  0.6030		  0.6463		  0.7051		  0.7635		  0.8309		  0.9075		  0.9835		  1.0486		  1.1335		  1.2117		  1.2601		  1.2831		  1.2374		  1.1185		  0.9949		  0.8683		  0.7475		  0.6379		  0.5433		  0.4630		  0.3975		  0.3406		  0.2933		  0.2967		  0.2597		  0.2258		  0.1999		  0.1780		  0.2500		  0.2404		  0.2404		     NaN		     NaN		
 0.580		  0.1846		  0.1909		  0.1949		  0.2014		  0.2147		  0.2238		  0.2341		  0.2498		  0.2654		  0.2755		  0.2925		  0.3137		  0.3360		  0.3573		  0.3802		  0.4094		  0.4379		  0.4647		  0.4906		  0.5275		  0.5648		  0.6124		  0.6568		  0.7161		  0.7755		  0.8444		  0.9220		  0.9988		  1.0653		  1.1517		  1.2308		  1.2801		  1.3032		  1.2573		  1.1380		  1.0132		  0.8859		  0.7636		  0.6527		  0.5566		  0.4751		  0.4084		  0.3504		  0.3020		  0.3019		  0.2643		  0.2298		  0.2034		  0.1812		  0.2544		  0.2446		  0.2446		     NaN		     NaN		
 0.590		  0.1882		  0.1947		  0.1990		  0.2058		  0.2190		  0.2282		  0.2386		  0.2545		  0.2700		  0.2804		  0.2974		  0.3186		  0.3415		  0.3632		  0.3864		  0.4164		  0.4451		  0.4722		  0.4982		  0.5360		  0.5735		  0.6217		  0.6672		  0.7270		  0.7874		  0.8579		  0.9365		  1.0142		  1.0820		  1.1700		  1.2500		  1.3002		  1.3232		  1.2773		  1.1575		  1.0315		  0.9035		  0.7796		  0.6674		  0.5698		  0.4871		  0.4194		  0.3602		  0.3108		  0.3071		  0.2689		  0.2337		  0.2069		  0.1863		  0.2587		  0.2488		  0.2488		     NaN		     NaN		
 0.600		  0.1919		  0.1985		  0.2032		  0.2102		  0.2235		  0.2330		  0.2436		  0.2595		  0.2749		  0.2859		  0.3029		  0.3242		  0.3463		  0.3682		  0.3916		  0.4225		  0.4519		  0.4796		  0.5059		  0.5445		  0.5821		  0.6311		  0.6776		  0.7380		  0.7993		  0.8714		  0.9509		  1.0295		  1.0987		  1.1882		  1.2692		  1.3203		  1.3433		  1.2972		  1.1769		  1.0498		  0.9212		  0.7956		  0.6822		  0.5831		  0.4992		  0.4304		  0.3700		  0.3196		  0.3123		  0.2734		  0.2377		  0.2104		  0.1913		  0.2631		  0.2531		  0.2531		     NaN		     NaN		
 0.610		  0.1955		  0.2022		  0.2073		  0.2146		  0.2280		  0.2377		  0.2486		  0.2646		  0.2797		  0.2914		  0.3085		  0.3298		  0.3510		  0.3730		  0.3962		  0.4274		  0.4570		  0.4855		  0.5122		  0.5522		  0.5908		  0.6405		  0.6881		  0.7490		  0.8112		  0.8849		  0.9654		  1.0448		  1.1154		  1.2064		  1.2884		  1.3404		  1.3634		  1.3172		  1.1964		  1.0681		  0.9388		  0.8116		  0.6969		  0.5964		  0.5113		  0.4413		  0.3798		  0.3283		  0.3175		  0.2780		  0.2417		  0.2139		  0.1964		  0.2675		  0.2573		  0.2573		     NaN		     NaN		
 0.620		  0.1992		  0.2060		  0.2115		  0.2190		  0.2325		  0.2425		  0.2536		  0.2697		  0.2845		  0.2969		  0.3140		  0.3354		  0.3557		  0.3777		  0.4007		  0.4323		  0.4621		  0.4914		  0.5183		  0.5594		  0.5997		  0.6498		  0.6983		  0.7599		  0.8232		  0.8984		  0.9798		  1.0601		  1.1321		  1.2247		  1.3075		  1.3604		  1.3834		  1.3371		  1.2159		  1.0863		  0.9564		  0.8277		  0.7117		  0.6096		  0.5233		  0.4523		  0.3896		  0.3371		  0.3227		  0.2825		  0.2456		  0.2174		  0.2014		  0.2719		  0.2615		  0.2615		     NaN		     NaN		
 0.630		  0.2028		  0.2098		  0.2156		  0.2234		  0.2370		  0.2472		  0.2586		  0.2748		  0.2894		  0.3024		  0.3195		  0.3410		  0.3604		  0.3824		  0.4052		  0.4372		  0.4672		  0.4973		  0.5243		  0.5666		  0.6085		  0.6591		  0.7084		  0.7708		  0.8347		  0.9113		  0.9941		  1.0754		  1.1488		  1.2429		  1.3267		  1.3805		  1.4035		  1.3571		  1.2353		  1.1046		  0.9741		  0.8437		  0.7265		  0.6229		  0.5354		  0.4632		  0.3994		  0.3458		  0.3279		  0.2871		  0.2496		  0.2209		  0.2065		  0.2763		  0.2657		  0.2657		     NaN		     NaN		
 0.640		  0.2064		  0.2136		  0.2197		  0.2278		  0.2415		  0.2520		  0.2635		  0.2799		  0.2942		  0.3079		  0.3250		  0.3465		  0.3652		  0.3871		  0.4098		  0.4422		  0.4722		  0.5032		  0.5304		  0.5738		  0.6173		  0.6684		  0.7185		  0.7817		  0.8463		  0.9237		  1.0072		  1.0900		  1.1652		  1.2611		  1.3459		  1.4006		  1.4236		  1.3770		  1.2548		  1.1229		  0.9917		  0.8597		  0.7412		  0.6361		  0.5474		  0.4742		  0.4091		  0.3546		  0.3332		  0.2916		  0.2535		  0.2244		  0.2115		  0.2807		  0.2699		  0.2699		     NaN		     NaN		
 0.650		  0.2101		  0.2173		  0.2239		  0.2322		  0.2460		  0.2567		  0.2685		  0.2850		  0.2991		  0.3134		  0.3306		  0.3521		  0.3699		  0.3919		  0.4143		  0.4471		  0.4773		  0.5091		  0.5364		  0.5810		  0.6261		  0.6777		  0.7286		  0.7926		  0.8578		  0.9362		  1.0204		  1.1044		  1.1805		  1.2781		  1.3650		  1.4207		  1.4436		  1.3970		  1.2743		  1.1412		  1.0093		  0.8757		  0.7560		  0.6494		  0.5595		  0.4852		  0.4189		  0.3633		  0.3384		  0.2962		  0.2575		  0.2279		  0.2166		  0.2850		  0.2742		  0.2742		     NaN		     NaN		
 0.660		  0.2137		  0.2211		  0.2280		  0.2366		  0.2505		  0.2615		  0.2735		  0.2900		  0.3039		  0.3189		  0.3361		  0.3577		  0.3746		  0.3966		  0.4189		  0.4520		  0.4824		  0.5150		  0.5425		  0.5882		  0.6349		  0.6870		  0.7388		  0.8034		  0.8694		  0.9486		  1.0335		  1.1188		  1.1959		  1.2944		  1.3819		  1.4398		  1.4637		  1.4169		  1.2937		  1.1595		  1.0270		  0.8918		  0.7707		  0.6626		  0.5715		  0.4961		  0.4287		  0.3721		  0.3436		  0.3008		  0.2615		  0.2314		  0.2216		  0.2894		  0.2784		  0.2784		     NaN		     NaN		
 0.670		  0.2173		  0.2249		  0.2322		  0.2410		  0.2549		  0.2662		  0.2785		  0.2951		  0.3087		  0.3245		  0.3416		  0.3633		  0.3793		  0.4013		  0.4234		  0.4569		  0.4875		  0.5210		  0.5485		  0.5954		  0.6437		  0.6963		  0.7489		  0.8143		  0.8810		  0.9611		  1.0467		  1.1331		  1.2112		  1.3106		  1.3988		  1.4575		  1.4819		  1.4366		  1.3132		  1.1777		  1.0446		  0.9078		  0.7855		  0.6759		  0.5836		  0.5071		  0.4385		  0.3808		  0.3488		  0.3053		  0.2654		  0.2349		  0.2267		  0.2938		  0.2826		  0.2826		     NaN		     NaN		
 0.680		  0.2210		  0.2287		  0.2363		  0.2454		  0.2594		  0.2710		  0.2835		  0.3002		  0.3136		  0.3300		  0.3471		  0.3688		  0.3840		  0.4060		  0.4279		  0.4619		  0.4926		  0.5269		  0.5546		  0.6026		  0.6525		  0.7056		  0.7590		  0.8252		  0.8925		  0.9735		  1.0599		  1.1475		  1.2265		  1.3269		  1.4158		  1.4751		  1.4994		  1.4539		  1.3316		  1.1960		  1.0622		  0.9238		  0.8002		  0.6891		  0.5956		  0.5181		  0.4483		  0.3896		  0.3540		  0.3099		  0.2694		  0.2384		  0.2317		  0.2982		  0.2868		  0.2868		     NaN		     NaN		
 0.690		  0.2246		  0.2325		  0.2405		  0.2498		  0.2639		  0.2757		  0.2884		  0.3053		  0.3184		  0.3355		  0.3527		  0.3744		  0.3888		  0.4108		  0.4325		  0.4668		  0.4977		  0.5328		  0.5606		  0.6098		  0.6614		  0.7149		  0.7691		  0.8361		  0.9041		  0.9860		  1.0730		  1.1618		  1.2419		  1.3431		  1.4327		  1.4928		  1.5170		  1.4711		  1.3487		  1.2127		  1.0794		  0.9398		  0.8150		  0.7024		  0.6077		  0.5290		  0.4581		  0.3983		  0.3592		  0.3144		  0.2733		  0.2419		  0.2367		  0.3026		  0.2910		  0.2910		     NaN		     NaN		
 0.700		  0.2282		  0.2362		  0.2446		  0.2542		  0.2684		  0.2805		  0.2934		  0.3104		  0.3233		  0.3410		  0.3582		  0.3800		  0.3935		  0.4155		  0.4370		  0.4717		  0.5028		  0.5387		  0.5667		  0.6170		  0.6702		  0.7242		  0.7792		  0.8469		  0.9156		  0.9984		  1.0862		  1.1762		  1.2572		  1.3594		  1.4496		  1.5105		  1.5346		  1.4884		  1.3657		  1.2289		  1.0948		  0.9549		  0.8295		  0.7157		  0.6197		  0.5400		  0.4679		  0.4071		  0.3644		  0.3190		  0.2773		  0.2454		  0.2418		  0.3070		  0.2952		  0.2952		     NaN		     NaN		
 0.710		  0.2319		  0.2400		  0.2487		  0.2586		  0.2729		  0.2852		  0.2984		  0.3155		  0.3281		  0.3465		  0.3637		  0.3856		  0.3982		  0.4202		  0.4416		  0.4766		  0.5079		  0.5446		  0.5727		  0.6242		  0.6790		  0.7335		  0.7894		  0.8578		  0.9272		  1.0109		  1.0993		  1.1906		  1.2726		  1.3757		  1.4666		  1.5282		  1.5522		  1.5057		  1.3827		  1.2452		  1.1102		  0.9695		  0.8430		  0.7285		  0.6317		  0.5509		  0.4777		  0.4159		  0.3696		  0.3235		  0.2813		  0.2489		  0.2468		  0.3114		  0.2995		  0.2995		     NaN		     NaN		
 0.720		  0.2355		  0.2438		  0.2529		  0.2630		  0.2774		  0.2900		  0.3034		  0.3206		  0.3329		  0.3520		  0.3692		  0.3911		  0.4029		  0.4250		  0.4461		  0.4815		  0.5130		  0.5505		  0.5788		  0.6314		  0.6878		  0.7428		  0.7995		  0.8687		  0.9387		  1.0233		  1.1125		  1.2049		  1.2879		  1.3919		  1.4835		  1.5459		  1.5697		  1.5229		  1.3997		  1.2614		  1.1257		  0.9841		  0.8564		  0.7413		  0.6434		  0.5620		  0.4874		  0.4248		  0.3755		  0.3281		  0.2852		  0.2524		  0.2519		  0.3157		  0.3037		  0.3037		     NaN		     NaN		
 0.730		  0.2391		  0.2476		  0.2570		  0.2674		  0.2819		  0.2947		  0.3084		  0.3256		  0.3378		  0.3575		  0.3747		  0.3967		  0.4076		  0.4297		  0.4506		  0.4865		  0.5181		  0.5564		  0.5848		  0.6386		  0.6966		  0.7521		  0.8096		  0.8795		  0.9503		  1.0358		  1.1257		  1.2193		  1.3033		  1.4082		  1.5004		  1.5636		  1.5873		  1.5402		  1.4167		  1.2777		  1.1411		  0.9988		  0.8699		  0.7541		  0.6551		  0.5730		  0.4971		  0.4340		  0.3837		  0.3354		  0.2917		  0.2578		  0.2569		  0.3201		  0.3079		  0.3079		     NaN		     NaN		
 0.740		  0.2428		  0.2514		  0.2612		  0.2718		  0.2864		  0.2994		  0.3133		  0.3307		  0.3426		  0.3630		  0.3803		  0.4023		  0.4124		  0.4344		  0.4552		  0.4914		  0.5232		  0.5623		  0.5909		  0.6458		  0.7054		  0.7614		  0.8197		  0.8904		  0.9619		  1.0483		  1.1388		  1.2336		  1.3186		  1.4244		  1.5174		  1.5813		  1.6049		  1.5574		  1.4337		  1.2939		  1.1566		  1.0134		  0.8834		  0.7669		  0.6668		  0.5841		  0.5068		  0.4432		  0.3919		  0.3427		  0.2986		  0.2641		  0.2620		  0.3245		  0.3121		  0.3121		     NaN		     NaN		
 0.750		  0.2464		  0.2551		  0.2653		  0.2762		  0.2908		  0.3042		  0.3183		  0.3358		  0.3475		  0.3685		  0.3858		  0.4079		  0.4171		  0.4391		  0.4597		  0.4963		  0.5283		  0.5682		  0.5969		  0.6530		  0.7142		  0.7707		  0.8298		  0.9013		  0.9734		  1.0607		  1.1520		  1.2480		  1.3340		  1.4407		  1.5343		  1.5989		  1.6225		  1.5747		  1.4507		  1.3102		  1.1720		  1.0280		  0.8968		  0.7797		  0.6786		  0.5951		  0.5165		  0.4524		  0.4001		  0.3500		  0.3055		  0.2703		  0.2670		  0.3289		  0.3163		  0.3163		     NaN		     NaN		
 0.760		  0.2501		  0.2589		  0.2695		  0.2806		  0.2953		  0.3089		  0.3233		  0.3409		  0.3523		  0.3740		  0.3913		  0.4134		  0.4218		  0.4439		  0.4643		  0.5012		  0.5334		  0.5741		  0.6030		  0.6602		  0.7231		  0.7800		  0.8399		  0.9122		  0.9850		  1.0732		  1.1651		  1.2624		  1.3493		  1.4570		  1.5512		  1.6166		  1.6400		  1.5920		  1.4677		  1.3265		  1.1875		  1.0426		  0.9103		  0.7925		  0.6903		  0.6061		  0.5262		  0.4615		  0.4083		  0.3573		  0.3125		  0.2766		  0.2721		  0.3333		  0.3206		  0.3206		     NaN		     NaN		
 0.770		  0.2537		  0.2627		  0.2736		  0.2850		  0.2998		  0.3137		  0.3283		  0.3460		  0.3571		  0.3795		  0.3968		  0.4190		  0.4265		  0.4486		  0.4688		  0.5062		  0.5385		  0.5801		  0.6090		  0.6674		  0.7319		  0.7893		  0.8501		  0.9230		  0.9965		  1.0856		  1.1783		  1.2767		  1.3646		  1.4732		  1.5682		  1.6343		  1.6576		  1.6092		  1.4847		  1.3427		  1.2029		  1.0572		  0.9238		  0.8053		  0.7020		  0.6172		  0.5359		  0.4707		  0.4165		  0.3646		  0.3194		  0.2829		  0.2771		  0.3377		  0.3248		  0.3248		     NaN		     NaN		
 0.780		  0.2573		  0.2665		  0.2777		  0.2894		  0.3043		  0.3184		  0.3333		  0.3511		  0.3620		  0.3851		  0.4024		  0.4246		  0.4312		  0.4533		  0.4733		  0.5111		  0.5436		  0.5860		  0.6151		  0.6746		  0.7407		  0.7986		  0.8602		  0.9339		  1.0081		  1.0981		  1.1914		  1.2911		  1.3800		  1.4895		  1.5851		  1.6520		  1.6752		  1.6265		  1.5017		  1.3590		  1.2184		  1.0719		  0.9373		  0.8181		  0.7138		  0.6282		  0.5456		  0.4799		  0.4248		  0.3719		  0.3263		  0.2891		  0.2822		  0.3421		  0.3290		     NaN		     NaN		     NaN		
 0.790		  0.2610		  0.2702		  0.2819		  0.2938		  0.3088		  0.3232		  0.3382		  0.3562		  0.3668		  0.3906		  0.4079		  0.4302		  0.4360		  0.4580		  0.4779		  0.5160		  0.5486		  0.5919		  0.6211		  0.6818		  0.7495		  0.8079		  0.8703		  0.9448		  1.0196		  1.1105		  1.2046		  1.3055		  1.3953		  1.5057		  1.6020		  1.6697		  1.6928		  1.6437		  1.5187		  1.3752		  1.2338		  1.0865		  0.9507		  0.8309		  0.7255		  0.6393		  0.5553		  0.4891		  0.4330		  0.3792		  0.3333		  0.2954		  0.2872		  0.3464		  0.3332		     NaN		     NaN		     NaN		
 0.800		  0.2646		  0.2740		  0.2860		  0.2983		  0.3133		  0.3279		  0.3432		  0.3612		  0.3717		  0.3961		  0.4134		  0.4357		  0.4407		  0.4628		  0.4824		  0.5209		  0.5537		  0.5978		  0.6272		  0.6889		  0.7583		  0.8172		  0.8804		  0.9557		  1.0312		  1.1230		  1.2178		  1.3198		  1.4107		  1.5220		  1.6190		  1.6874		  1.7103		  1.6610		  1.5357		  1.3915		  1.2493		  1.1011		  0.9642		  0.8437		  0.7372		  0.6503		  0.5650		  0.4983		  0.4412		  0.3865		  0.3402		  0.3016		  0.2922		  0.3508		  0.3374		     NaN		     NaN		     NaN		
 0.810		  0.2682		  0.2778		  0.2902		  0.3027		  0.3178		  0.3327		  0.3482		  0.3663		  0.3765		  0.4016		  0.4189		  0.4413		  0.4454		  0.4675		  0.4869		  0.5258		  0.5588		  0.6037		  0.6332		  0.6961		  0.7671		  0.8265		  0.8905		  0.9665		  1.0428		  1.1354		  1.2309		  1.3342		  1.4260		  1.5383		  1.6359		  1.7050		  1.7279		  1.6783		  1.5528		  1.4077		  1.2647		  1.1157		  0.9777		  0.8565		  0.7489		  0.6613		  0.5747		  0.5075		  0.4494		  0.3938		  0.3472		  0.3079		  0.2973		  0.3552		  0.3416		     NaN		     NaN		     NaN		
 0.820		  0.2719		  0.2816		  0.2943		  0.3071		  0.3223		  0.3374		  0.3532		  0.3714		  0.3813		  0.4071		  0.4245		  0.4469		  0.4501		  0.4722		  0.4915		  0.5308		  0.5639		  0.6096		  0.6393		  0.7033		  0.7760		  0.8358		  0.9007		  0.9774		  1.0543		  1.1479		  1.2441		  1.3485		  1.4414		  1.5545		  1.6528		  1.7227		  1.7455		  1.6955		  1.5698		  1.4240		  1.2802		  1.1303		  0.9911		  0.8693		  0.7607		  0.6724		  0.5844		  0.5166		  0.4576		  0.4012		  0.3541		  0.3142		  0.3023		  0.3596		  0.3459		     NaN		     NaN		     NaN		
 0.830		  0.2750		  0.2850		  0.2980		  0.3111		  0.3265		  0.3421		  0.3581		  0.3765		  0.3862		  0.4126		  0.4300		  0.4525		  0.4548		  0.4769		  0.4960		  0.5357		  0.5690		  0.6155		  0.6453		  0.7105		  0.7848		  0.8451		  0.9108		  0.9883		  1.0659		  1.1603		  1.2572		  1.3629		  1.4567		  1.5708		  1.6697		  1.7404		  1.7631		  1.7128		  1.5868		  1.4402		  1.2956		  1.1450		  1.0046		  0.8821		  0.7724		  0.6834		  0.5942		  0.5258		  0.4658		  0.4085		  0.3610		  0.3204		  0.3074		  0.3640		  0.3501		     NaN		     NaN		     NaN		
 0.840		  0.2777		  0.2881		  0.3011		  0.3145		  0.3301		  0.3459		  0.3620		  0.3809		  0.3905		  0.4172		  0.4350		  0.4575		  0.4595		  0.4817		  0.5006		  0.5406		  0.5741		  0.6214		  0.6514		  0.7177		  0.7936		  0.8544		  0.9209		  0.9992		  1.0774		  1.1728		  1.2704		  1.3773		  1.4720		  1.5870		  1.6867		  1.7581		  1.7806		  1.7300		  1.6038		  1.4565		  1.3111		  1.1596		  1.0181		  0.8948		  0.7841		  0.6945		  0.6039		  0.5350		  0.4740		  0.4158		  0.3680		  0.3267		  0.3124		  0.3684		  0.3543		     NaN		     NaN		     NaN		
 0.850		  0.2804		  0.2913		  0.3042		  0.3179		  0.3337		  0.3497		  0.3660		  0.3852		  0.3946		  0.4215		  0.4398		  0.4619		  0.4641		  0.4869		  0.5064		  0.5463		  0.5799		  0.6276		  0.6577		  0.7249		  0.8024		  0.8637		  0.9310		  1.0100		  1.0890		  1.1852		  1.2836		  1.3916		  1.4874		  1.6033		  1.7036		  1.7758		  1.7982		  1.7473		  1.6208		  1.4728		  1.3265		  1.1742		  1.0316		  0.9076		  0.7958		  0.7055		  0.6136		  0.5442		  0.4822		  0.4231		  0.3749		  0.3330		  0.3175		  0.3728		  0.3585		     NaN		     NaN		     NaN		
 0.860		  0.2830		  0.2944		  0.3073		  0.3213		  0.3373		  0.3536		  0.3699		  0.3895		  0.3988		  0.4257		  0.4445		  0.4663		  0.4687		  0.4921		  0.5123		  0.5522		  0.5862		  0.6340		  0.6648		  0.7322		  0.8101		  0.8721		  0.9408		  1.0209		  1.1005		  1.1977		  1.2967		  1.4060		  1.5027		  1.6196		  1.7205		  1.7935		  1.8158		  1.7646		  1.6378		  1.4890		  1.3420		  1.1888		  1.0450		  0.9204		  0.8076		  0.7165		  0.6233		  0.5534		  0.4904		  0.4304		  0.3818		  0.3392		  0.3225		  0.3771		  0.3627		     NaN		     NaN		     NaN		
 0.870		  0.2857		  0.2975		  0.3104		  0.3247		  0.3408		  0.3574		  0.3738		  0.3938		  0.4030		  0.4299		  0.4493		  0.4706		  0.4733		  0.4973		  0.5181		  0.5582		  0.5924		  0.6405		  0.6719		  0.7394		  0.8173		  0.8797		  0.9491		  1.0302		  1.1112		  1.2098		  1.3099		  1.4203		  1.5181		  1.6358		  1.7375		  1.8112		  1.8334		  1.7818		  1.6548		  1.5053		  1.3574		  1.2034		  1.0585		  0.9332		  0.8193		  0.7276		  0.6330		  0.5626		  0.4987		  0.4377		  0.3888		  0.3455		  0.3276		  0.3815		  0.3669		     NaN		     NaN		     NaN		
 0.880		  0.2884		  0.3006		  0.3134		  0.3281		  0.3444		  0.3612		  0.3777		  0.3981		  0.4071		  0.4342		  0.4540		  0.4750		  0.4779		  0.5025		  0.5240		  0.5641		  0.5986		  0.6470		  0.6790		  0.7466		  0.8246		  0.8874		  0.9575		  1.0394		  1.1212		  1.2206		  1.3219		  1.4339		  1.5334		  1.6521		  1.7544		  1.8288		  1.8510		  1.7991		  1.6718		  1.5215		  1.3729		  1.2181		  1.0720		  0.9460		  0.8310		  0.7386		  0.6427		  0.5717		  0.5069		  0.4450		  0.3957		  0.3518		  0.3326		  0.3859		  0.3712		     NaN		     NaN		     NaN		
 0.890		  0.2911		  0.3037		  0.3165		  0.3315		  0.3480		  0.3651		  0.3816		  0.4024		  0.4113		  0.4384		  0.4587		  0.4794		  0.4826		  0.5077		  0.5299		  0.5700		  0.6049		  0.6534		  0.6861		  0.7539		  0.8319		  0.8950		  0.9658		  1.0485		  1.1311		  1.2314		  1.3336		  1.4461		  1.5469		  1.6676		  1.7713		  1.8465		  1.8685		  1.8163		  1.6888		  1.5378		  1.3883		  1.2327		  1.0854		  0.9588		  0.8427		  0.7497		  0.6524		  0.5809		  0.5151		  0.4523		  0.4026		  0.3580		  0.3377		  0.3903		  0.3754		     NaN		     NaN		     NaN		
 0.900		  0.2938		  0.3069		  0.3196		  0.3348		  0.3515		  0.3689		  0.3856		  0.4067		  0.4155		  0.4427		  0.4635		  0.4837		  0.4872		  0.5129		  0.5358		  0.5759		  0.6111		  0.6599		  0.6932		  0.7611		  0.8392		  0.9026		  0.9742		  1.0577		  1.1411		  1.2422		  1.3454		  1.4584		  1.5602		  1.6820		  1.7868		  1.8638		  1.8861		  1.8336		  1.7058		  1.5540		  1.4038		  1.2473		  1.0989		  0.9716		  0.8545		  0.7607		  0.6621		  0.5901		  0.5233		  0.4596		  0.4096		  0.3643		  0.3427		  0.3947		  0.3796		     NaN		     NaN		     NaN		
 0.910		  0.2965		  0.3100		  0.3227		  0.3382		  0.3551		  0.3727		  0.3895		  0.4110		  0.4197		  0.4469		  0.4682		  0.4881		  0.4918		  0.5181		  0.5416		  0.5818		  0.6173		  0.6664		  0.7003		  0.7683		  0.8465		  0.9103		  0.9826		  1.0668		  1.1511		  1.2530		  1.3571		  1.4707		  1.5735		  1.6964		  1.8021		  1.8800		  1.9032		  1.8508		  1.7228		  1.5703		  1.4192		  1.2619		  1.1124		  0.9844		  0.8662		  0.7717		  0.6718		  0.5993		  0.5315		  0.4669		  0.4165		  0.3706		  0.3477		  0.3991		  0.3838		     NaN		     NaN		     NaN		
 0.920		  0.2992		  0.3131		  0.3258		  0.3416		  0.3587		  0.3766		  0.3934		  0.4154		  0.4238		  0.4511		  0.4729		  0.4925		  0.4964		  0.5233		  0.5475		  0.5877		  0.6236		  0.6728		  0.7074		  0.7756		  0.8537		  0.9179		  0.9909		  1.0759		  1.1611		  1.2638		  1.3689		  1.4829		  1.5868		  1.7108		  1.8174		  1.8962		  1.9201		  1.8678		  1.7399		  1.5865		  1.4347		  1.2765		  1.1258		  0.9972		  0.8779		  0.7828		  0.6815		  0.6085		  0.5397		  0.4742		  0.4235		  0.3768		  0.3528		  0.4035		  0.3880		     NaN		     NaN		     NaN		
 0.930		  0.3019		  0.3162		  0.3289		  0.3450		  0.3623		  0.3804		  0.3973		  0.4197		  0.4280		  0.4554		  0.4777		  0.4968		  0.5010		  0.5285		  0.5534		  0.5937		  0.6298		  0.6793		  0.7145		  0.7828		  0.8610		  0.9255		  0.9993		  1.0851		  1.1710		  1.2746		  1.3806		  1.4952		  1.6001		  1.7252		  1.8327		  1.9124		  1.9370		  1.8848		  1.7570		  1.6033		  1.4504		  1.2912		  1.1393		  1.0100		  0.8896		  0.7938		  0.6912		  0.6176		  0.5479		  0.4815		  0.4304		  0.3831		  0.3578		  0.4078		  0.3923		     NaN		     NaN		     NaN		
 0.940		  0.3046		  0.3193		  0.3319		  0.3484		  0.3658		  0.3842		  0.4012		  0.4240		  0.4322		  0.4596		  0.4824		  0.5012		  0.5056		  0.5337		  0.5592		  0.5996		  0.6360		  0.6858		  0.7216		  0.7900		  0.8683		  0.9332		  1.0077		  1.0942		  1.1810		  1.2854		  1.3924		  1.5075		  1.6135		  1.7396		  1.8480		  1.9286		  1.9539		  1.9017		  1.7740		  1.6202		  1.4672		  1.3067		  1.1531		  1.0228		  0.9014		  0.8049		  0.7009		  0.6268		  0.5561		  0.4888		  0.4373		  0.3893		  0.3636		  0.4122		  0.3965		     NaN		     NaN		     NaN		
 0.950		  0.3073		  0.3224		  0.3350		  0.3518		  0.3694		  0.3881		  0.4052		  0.4283		  0.4363		  0.4639		  0.4871		  0.5056		  0.5102		  0.5389		  0.5651		  0.6055		  0.6423		  0.6922		  0.7287		  0.7972		  0.8756		  0.9408		  1.0160		  1.1034		  1.1910		  1.2962		  1.4041		  1.5197		  1.6268		  1.7540		  1.8633		  1.9449		  1.9708		  1.9187		  1.7911		  1.6372		  1.4840		  1.3227		  1.1683		  1.0367		  0.9136		  0.8159		  0.7106		  0.6360		  0.5643		  0.4961		  0.4443		  0.3956		  0.3707		  0.4166		  0.4007		     NaN		     NaN		     NaN		
 0.960		  0.3100		  0.3256		  0.3381		  0.3552		  0.3730		  0.3919		  0.4091		  0.4326		  0.4405		  0.4681		  0.4919		  0.5099		  0.5148		  0.5441		  0.5710		  0.6114		  0.6485		  0.6987		  0.7358		  0.8045		  0.8829		  0.9484		  1.0244		  1.1125		  1.2010		  1.3070		  1.4159		  1.5320		  1.6401		  1.7684		  1.8786		  1.9611		  1.9876		  1.9357		  1.8082		  1.6541		  1.5007		  1.3386		  1.1836		  1.0512		  0.9274		  0.8286		  0.7217		  0.6457		  0.5726		  0.5034		  0.4512		  0.4019		  0.3778		  0.4210		  0.4049		     NaN		     NaN		     NaN		
 0.970		  0.3127		  0.3287		  0.3412		  0.3585		  0.3765		  0.3957		  0.4130		  0.4369		  0.4447		  0.4723		  0.4966		  0.5143		  0.5194		  0.5493		  0.5769		  0.6173		  0.6547		  0.7052		  0.7429		  0.8117		  0.8901		  0.9561		  1.0328		  1.1216		  1.2109		  1.3178		  1.4276		  1.5443		  1.6534		  1.7828		  1.8939		  1.9773		  2.0045		  1.9527		  1.8253		  1.6710		  1.5175		  1.3546		  1.1988		  1.0657		  0.9411		  0.8414		  0.7340		  0.6571		  0.5830		  0.5124		  0.4592		  0.4088		  0.3849		  0.4254		  0.4091		     NaN		     NaN		     NaN		
 0.980		  0.3154		  0.3318		  0.3443		  0.3619		  0.3801		  0.3996		  0.4169		  0.4412		  0.4489		  0.4766		  0.5014		  0.5187		  0.5240		  0.5545		  0.5827		  0.6232		  0.6610		  0.7117		  0.7500		  0.8189		  0.8974		  0.9637		  1.0411		  1.1308		  1.2209		  1.3286		  1.4394		  1.5565		  1.6667		  1.7972		  1.9092		  1.9935		  2.0214		  1.9696		  1.8423		  1.6879		  1.5342		  1.3705		  1.2141		  1.0801		  0.9548		  0.8543		  0.7462		  0.6685		  0.5936		  0.5222		  0.4682		  0.4172		  0.3919		  0.4298		  0.4133		     NaN		     NaN		     NaN		
 0.990		  0.3181		  0.3349		  0.3474		  0.3653		  0.3837		  0.4034		  0.4208		  0.4455		  0.4530		  0.4808		  0.5061		  0.5230		  0.5286		  0.5597		  0.5886		  0.6292		  0.6672		  0.7181		  0.7571		  0.8262		  0.9047		  0.9713		  1.0495		  1.1399		  1.2309		  1.3394		  1.4511		  1.5688		  1.6800		  1.8116		  1.9245		  2.0097		  2.0383		  1.9866		  1.8594		  1.7048		  1.5510		  1.3865		  1.2293		  1.0946		  0.9686		  0.8671		  0.7584		  0.6798		  0.6041		  0.5319		  0.4773		  0.4256		  0.3990		  0.4342		  0.4176		     NaN		     NaN		     NaN		
 1.000		  0.3208		  0.3380		  0.3504		  0.3687		  0.3873		  0.4072		  0.4248		  0.4499		  0.4572		  0.4851		  0.5108		  0.5274		  0.5332		  0.5649		  0.5945		  0.6351		  0.6734		  0.7246		  0.7642		  0.8334		  0.9120		  0.9790		  1.0578		  1.1491		  1.2409		  1.3502		  1.4629		  1.5811		  1.6934		  1.8260		  1.9398		  2.0259		  2.0552		  2.0036		  1.8765		  1.7217		  1.5678		  1.4024		  1.2445		  1.1091		  0.9823		  0.8799		  0.7707		  0.6912		  0.6146		  0.5417		  0.4863		  0.4340		  0.4061		  0.4385		  0.4218		     NaN		     NaN		     NaN		
 1.010		  0.3235		  0.3412		  0.3535		  0.3721		  0.3908		  0.4111		  0.4287		  0.4542		  0.4614		  0.4893		  0.5156		  0.5318		  0.5378		  0.5701		  0.6003		  0.6410		  0.6797		  0.7311		  0.7713		  0.8406		  0.9193		  0.9866		  1.0662		  1.1582		  1.2508		  1.3610		  1.4746		  1.5933		  1.7067		  1.8404		  1.9551		  2.0422		  2.0721		  2.0206		  1.8936		  1.7386		  1.5845		  1.4184		  1.2598		  1.1236		  0.9960		  0.8928		  0.7829		  0.7026		  0.6252		  0.5514		  0.4954		  0.4424		  0.4132		  0.4429		  0.4260		     NaN		     NaN		     NaN		
 1.020		  0.3261		  0.3443		  0.3566		  0.3755		  0.3944		  0.4149		  0.4326		  0.4585		  0.4655		  0.4935		  0.5203		  0.5361		  0.5424		  0.5753		  0.6062		  0.6469		  0.6859		  0.7375		  0.7784		  0.8479		  0.9266		  0.9942		  1.0746		  1.1673		  1.2608		  1.3718		  1.4864		  1.6056		  1.7200		  1.8549		  1.9704		  2.0584		  2.0890		  2.0375		  1.9106		  1.7556		  1.6013		  1.4343		  1.2750		  1.1380		  1.0097		  0.9056		  0.7951		  0.7140		  0.6357		  0.5612		  0.5044		  0.4508		  0.4203		  0.4473		  0.4302		     NaN		     NaN		     NaN		
 1.030		  0.3288		  0.3474		  0.3597		  0.3789		  0.3980		  0.4187		  0.4365		  0.4628		  0.4697		  0.4978		  0.5250		  0.5405		  0.5470		  0.5805		  0.6121		  0.6528		  0.6921		  0.7440		  0.7855		  0.8551		  0.9338		  1.0019		  1.0829		  1.1765		  1.2708		  1.3826		  1.4981		  1.6179		  1.7333		  1.8693		  1.9857		  2.0746		  2.1059		  2.0545		  1.9277		  1.7725		  1.6181		  1.4503		  1.2903		  1.1525		  1.0235		  0.9185		  0.8074		  0.7253		  0.6462		  0.5709		  0.5134		  0.4592		  0.4274		  0.4517		  0.4344		     NaN		     NaN		     NaN		
 1.040		  0.3315		  0.3505		  0.3628		  0.3822		  0.4015		  0.4226		  0.4404		  0.4671		  0.4739		  0.5020		  0.5298		  0.5449		  0.5516		  0.5857		  0.6180		  0.6587		  0.6984		  0.7505		  0.7926		  0.8623		  0.9411		  1.0095		  1.0913		  1.1856		  1.2808		  1.3934		  1.5099		  1.6301		  1.7466		  1.8837		  2.0010		  2.0908		  2.1228		  2.0715		  1.9448		  1.7894		  1.6348		  1.4662		  1.3055		  1.1670		  1.0372		  0.9313		  0.8196		  0.7367		  0.6568		  0.5807		  0.5225		  0.4676		  0.4345		  0.4561		  0.4386		     NaN		     NaN		     NaN		
 1.050		  0.3342		  0.3536		  0.3659		  0.3856		  0.4051		  0.4264		  0.4444		  0.4714		  0.4781		  0.5063		  0.5345		  0.5492		  0.5562		  0.5909		  0.6238		  0.6647		  0.7046		  0.7569		  0.7997		  0.8696		  0.9484		  1.0171		  1.0997		  1.1948		  1.2907		  1.4042		  1.5216		  1.6424		  1.7599		  1.8981		  2.0163		  2.1070		  2.1397		  2.0885		  1.9619		  1.8063		  1.6516		  1.4822		  1.3208		  1.1815		  1.0509		  0.9442		  0.8318		  0.7481		  0.6673		  0.5904		  0.5315		  0.4760		  0.4409		  0.4605		  0.4429		     NaN		     NaN		     NaN		
 1.060		  0.3369		  0.3567		  0.3689		  0.3890		  0.4087		  0.4302		  0.4483		  0.4757		  0.4822		  0.5105		  0.5392		  0.5536		  0.5608		  0.5961		  0.6297		  0.6706		  0.7108		  0.7634		  0.8068		  0.8768		  0.9557		  1.0248		  1.1080		  1.2039		  1.3007		  1.4150		  1.5334		  1.6546		  1.7733		  1.9125		  2.0316		  2.1233		  2.1566		  2.1054		  1.9789		  1.8232		  1.6684		  1.4981		  1.3360		  1.1959		  1.0646		  0.9570		  0.8441		  0.7594		  0.6778		  0.6002		  0.5406		  0.4844		  0.4470		  0.4648		  0.4471		     NaN		     NaN		     NaN		
 1.070		  0.3396		  0.3599		  0.3720		  0.3924		  0.4123		  0.4341		  0.4522		  0.4800		  0.4864		  0.5147		  0.5440		  0.5580		  0.5654		  0.6013		  0.6356		  0.6765		  0.7171		  0.7699		  0.8139		  0.8840		  0.9630		  1.0324		  1.1164		  1.2131		  1.3107		  1.4258		  1.5451		  1.6669		  1.7866		  1.9269		  2.0469		  2.1395		  2.1734		  2.1224		  1.9960		  1.8401		  1.6851		  1.5141		  1.3512		  1.2104		  1.0784		  0.9699		  0.8563		  0.7708		  0.6884		  0.6099		  0.5496		  0.4928		  0.4532		  0.4692		  0.4513		     NaN		     NaN		     NaN		
 1.080		  0.3423		  0.3630		  0.3751		  0.3958		  0.4158		  0.4379		  0.4561		  0.4844		  0.4906		  0.5190		  0.5487		  0.5623		  0.5700		  0.6065		  0.6414		  0.6824		  0.7233		  0.7763		  0.8210		  0.8913		  0.9702		  1.0400		  1.1248		  1.2222		  1.3207		  1.4366		  1.5569		  1.6792		  1.7999		  1.9413		  2.0622		  2.1557		  2.1903		  2.1394		  2.0131		  1.8570		  1.7019		  1.5300		  1.3665		  1.2249		  1.0921		  0.9827		  0.8685		  0.7822		  0.6989		  0.6197		  0.5586		  0.5012		  0.4593		  0.4736		  0.4555		     NaN		     NaN		     NaN		
 1.090		  0.3450		  0.3661		  0.3782		  0.3992		  0.4194		  0.4417		  0.4600		  0.4887		  0.4947		  0.5232		  0.5535		  0.5667		  0.5746		  0.6117		  0.6473		  0.6883		  0.7295		  0.7828		  0.8281		  0.8985		  0.9775		  1.0477		  1.1331		  1.2313		  1.3306		  1.4474		  1.5686		  1.6914		  1.8132		  1.9557		  2.0774		  2.1719		  2.2072		  2.1563		  2.0302		  1.8739		  1.7187		  1.5460		  1.3817		  1.2393		  1.1058		  0.9955		  0.8807		  0.7935		  0.7094		  0.6294		  0.5677		  0.5096		  0.4655		  0.4780		  0.4597		     NaN		     NaN		     NaN		
 1.100		  0.3477		  0.3692		  0.3813		  0.4026		  0.4230		  0.4456		  0.4640		  0.4930		  0.4989		  0.5275		  0.5582		  0.5711		  0.5792		  0.6168		  0.6532		  0.6942		  0.7358		  0.7893		  0.8352		  0.9057		  0.9848		  1.0553		  1.1415		  1.2405		  1.3406		  1.4582		  1.5804		  1.7037		  1.8265		  1.9701		  2.0927		  2.1881		  2.2241		  2.1733		  2.0473		  1.8909		  1.7354		  1.5619		  1.3970		  1.2538		  1.1195		  1.0084		  0.8930		  0.8049		  0.7200		  0.6392		  0.5767		  0.5180		  0.4716		  0.4824		  0.4640		     NaN		     NaN		     NaN		
 1.110		  0.3504		  0.3723		  0.3844		  0.4059		  0.4265		  0.4494		  0.4679		  0.4973		  0.5031		  0.5317		  0.5629		  0.5754		  0.5838		  0.6220		  0.6591		  0.7002		  0.7420		  0.7957		  0.8423		  0.9130		  0.9921		  1.0629		  1.1498		  1.2496		  1.3506		  1.4690		  1.5921		  1.7160		  1.8398		  1.9845		  2.1080		  2.2043		  2.2410		  2.1903		  2.0643		  1.9078		  1.7522		  1.5779		  1.4122		  1.2683		  1.1333		  1.0212		  0.9052		  0.8163		  0.7305		  0.6489		  0.5858		  0.5264		  0.4778		  0.4868		  0.4682		     NaN		     NaN		     NaN		
 1.120		  0.3531		  0.3755		  0.3874		  0.4093		  0.4301		  0.4532		  0.4718		  0.5016		  0.5073		  0.5359		  0.5677		  0.5798		  0.5884		  0.6272		  0.6649		  0.7061		  0.7482		  0.8022		  0.8494		  0.9202		  0.9994		  1.0706		  1.1582		  1.2588		  1.3605		  1.4798		  1.6039		  1.7282		  1.8532		  1.9989		  2.1233		  2.2206		  2.2579		  2.2073		  2.0814		  1.9247		  1.7690		  1.5938		  1.4274		  1.2828		  1.1470		  1.0341		  0.9174		  0.8276		  0.7410		  0.6587		  0.5948		  0.5348		  0.4839		  0.4912		  0.4724		     NaN		     NaN		     NaN		
 1.130		  0.3558		  0.3786		  0.3905		  0.4127		  0.4337		  0.4571		  0.4757		  0.5059		  0.5114		  0.5402		  0.5724		  0.5842		  0.5930		  0.6324		  0.6708		  0.7120		  0.7545		  0.8087		  0.8565		  0.9274		  1.0066		  1.0782		  1.1666		  1.2679		  1.3705		  1.4906		  1.6156		  1.7405		  1.8665		  2.0133		  2.1386		  2.2368		  2.2748		  2.2242		  2.0985		  1.9416		  1.7857		  1.6098		  1.4427		  1.2972		  1.1607		  1.0469		  0.9297		  0.8390		  0.7516		  0.6684		  0.6038		  0.5432		  0.4901		  0.4955		  0.4766		     NaN		     NaN		     NaN		
 1.140		  0.3585		  0.3817		  0.3936		  0.4161		  0.4373		  0.4609		  0.4796		  0.5102		  0.5156		  0.5444		  0.5771		  0.5885		  0.5976		  0.6376		  0.6767		  0.7179		  0.7607		  0.8151		  0.8636		  0.9347		  1.0139		  1.0858		  1.1749		  1.2770		  1.3805		  1.5014		  1.6274		  1.7528		  1.8798		  2.0278		  2.1539		  2.2530		  2.2917		  2.2412		  2.1156		  1.9585		  1.8025		  1.6257		  1.4579		  1.3117		  1.1745		  1.0598		  0.9419		  0.8504		  0.7621		  0.6782		  0.6129		  0.5516		  0.4962		  0.4999		  0.4808		     NaN		     NaN		     NaN		
 1.150		  0.3612		  0.3848		  0.3967		  0.4195		  0.4408		  0.4647		  0.4836		  0.5145		  0.5198		  0.5487		  0.5819		  0.5929		  0.6022		  0.6428		  0.6825		  0.7238		  0.7669		  0.8216		  0.8707		  0.9419		  1.0212		  1.0935		  1.1833		  1.2862		  1.3905		  1.5122		  1.6391		  1.7650		  1.8931		  2.0422		  2.1692		  2.2692		  2.3086		  2.2582		  2.1326		  1.9754		  1.8193		  1.6417		  1.4732		  1.3262		  1.1882		  1.0726		  0.9541		  0.8617		  0.7726		  0.6879		  0.6219		  0.5600		  0.5024		  0.5043		  0.4850		     NaN		     NaN		     NaN		
 1.160		  0.3639		  0.3879		  0.3998		  0.4229		  0.4444		  0.4686		  0.4875		  0.5189		  0.5240		  0.5529		  0.5866		  0.5973		  0.6068		  0.6480		  0.6884		  0.7297		  0.7732		  0.8281		  0.8778		  0.9491		  1.0285		  1.1011		  1.1917		  1.2953		  1.4004		  1.5230		  1.6509		  1.7773		  1.9064		  2.0566		  2.1845		  2.2854		  2.3255		  2.2752		  2.1497		  1.9923		  1.8360		  1.6576		  1.4884		  1.3407		  1.2019		  1.0855		  0.9664		  0.8731		  0.7832		  0.6977		  0.6310		  0.5684		  0.5086		  0.5087		  0.4893		     NaN		     NaN		     NaN		
 1.170		  0.3666		  0.3910		  0.4029		  0.4263		  0.4480		  0.4724		  0.4914		  0.5232		  0.5281		  0.5572		  0.5913		  0.6017		  0.6115		  0.6532		  0.6943		  0.7356		  0.7794		  0.8345		  0.8850		  0.9564		  1.0358		  1.1087		  1.2000		  1.3045		  1.4104		  1.5338		  1.6626		  1.7896		  1.9197		  2.0710		  2.1998		  2.3017		  2.3424		  2.2921		  2.1668		  2.0092		  1.8528		  1.6736		  1.5037		  1.3551		  1.2156		  1.0983		  0.9786		  0.8845		  0.7937		  0.7074		  0.6400		  0.5768		  0.5154		  0.5131		     NaN		     NaN		     NaN		     NaN		
 1.180		  0.3693		  0.3942		  0.4059		  0.4296		  0.4515		  0.4762		  0.4953		  0.5275		  0.5323		  0.5614		  0.5961		  0.6060		  0.6161		  0.6584		  0.7002		  0.7416		  0.7856		  0.8410		  0.8921		  0.9636		  1.0430		  1.1164		  1.2084		  1.3136		  1.4204		  1.5446		  1.6744		  1.8018		  1.9331		  2.0854		  2.2151		  2.3179		  2.3592		  2.3091		  2.1839		  2.0262		  1.8696		  1.6895		  1.5189		  1.3696		  1.2294		  1.1112		  0.9908		  0.8959		  0.8042		  0.7172		  0.6490		  0.5852		  0.5227		  0.5175		     NaN		     NaN		     NaN		     NaN		
 1.190		  0.3719		  0.3973		  0.4090		  0.4330		  0.4551		  0.4801		  0.4992		  0.5318		  0.5365		  0.5656		  0.6008		  0.6104		  0.6207		  0.6636		  0.7060		  0.7475		  0.7919		  0.8475		  0.8992		  0.9708		  1.0503		  1.1240		  1.2167		  1.3228		  1.4304		  1.5554		  1.6861		  1.8141		  1.9464		  2.0998		  2.2304		  2.3341		  2.3761		  2.3261		  2.2009		  2.0431		  1.8863		  1.7055		  1.5341		  1.3841		  1.2431		  1.1240		  1.0031		  0.9072		  0.8148		  0.7269		  0.6581		  0.5936		  0.5300		  0.5219		     NaN		     NaN		     NaN		     NaN		
 1.200		  0.3746		  0.4004		  0.4121		  0.4364		  0.4587		  0.4839		  0.5032		  0.5361		  0.5406		  0.5699		  0.6056		  0.6148		  0.6253		  0.6688		  0.7119		  0.7534		  0.7981		  0.8539		  0.9063		  0.9781		  1.0576		  1.1316		  1.2251		  1.3319		  1.4403		  1.5662		  1.6979		  1.8263		  1.9597		  2.1142		  2.2457		  2.3503		  2.3930		  2.3430		  2.2180		  2.0600		  1.9031		  1.7214		  1.5494		  1.3985		  1.2568		  1.1368		  1.0153		  0.9186		  0.8253		  0.7367		  0.6671		  0.6020		  0.5373		  0.5262		     NaN		     NaN		     NaN		     NaN		
 1.210		  0.3773		  0.4035		  0.4152		  0.4398		  0.4623		  0.4877		  0.5071		  0.5404		  0.5448		  0.5741		  0.6103		  0.6191		  0.6299		  0.6740		  0.7178		  0.7593		  0.8043		  0.8604		  0.9134		  0.9853		  1.0649		  1.1393		  1.2335		  1.3410		  1.4503		  1.5770		  1.7096		  1.8386		  1.9730		  2.1286		  2.2610		  2.3665		  2.4099		  2.3600		  2.2351		  2.0769		  1.9198		  1.7374		  1.5646		  1.4130		  1.2705		  1.1497		  1.0275		  0.9300		  0.8358		  0.7464		  0.6762		  0.6104		  0.5446		  0.5306		     NaN		     NaN		     NaN		     NaN		
 1.220		  0.3800		  0.4066		  0.4183		  0.4432		  0.4658		  0.4916		  0.5110		  0.5447		  0.5490		  0.5784		  0.6150		  0.6235		  0.6345		  0.6792		  0.7236		  0.7652		  0.8106		  0.8669		  0.9205		  0.9925		  1.0722		  1.1469		  1.2418		  1.3502		  1.4603		  1.5878		  1.7214		  1.8509		  1.9863		  2.1430		  2.2763		  2.3827		  2.4268		  2.3770		  2.2522		  2.0938		  1.9366		  1.7533		  1.5799		  1.4275		  1.2843		  1.1625		  1.0398		  0.9413		  0.8464		  0.7562		  0.6852		  0.6188		  0.5519		  0.5350		     NaN		     NaN		     NaN		     NaN		
 1.230		     NaN		     NaN		     NaN		  0.4730		  0.4854		  0.5127		  0.5361		  0.5597		  0.5761		  0.5960		  0.6198		  0.6279		  0.6391		  0.6844		  0.7295		  0.7711		  0.8168		  0.8733		  0.9276		  0.9998		  1.0794		  1.1545		  1.2502		  1.3593		  1.4703		  1.5986		  1.7331		  1.8631		  1.9996		  2.1574		  2.2916		  2.3990		  2.4437		  2.3940		  2.2692		  2.1107		  1.9534		  1.7693		  1.5951		  1.4420		  1.2980		  1.1754		  1.0520		  0.9527		  0.8569		  0.7659		  0.6942		  0.6272		  0.5593		  0.5394		     NaN		     NaN		     NaN		     NaN		
 1.240		     NaN		     NaN		     NaN		     NaN		     NaN		     NaN		  0.5084		  0.5868		  0.6170		  0.6518		  0.6863		  0.7019		  0.7205		  0.7493		  0.7469		  0.7822		  0.8309		  0.8798		  0.9347		  1.0070		  1.0867		  1.1621		  1.2586		  1.3685		  1.4802		  1.6094		  1.7449		  1.8754		  2.0130		  2.1718		  2.3069		  2.4152		  2.4606		  2.4109		  2.2863		  2.1276		  1.9701		  1.7852		  1.6103		  1.4564		  1.3117		  1.1882		  1.0642		  0.9641		  0.8675		  0.7757		  0.7033		  0.6356		  0.5666		  0.5438		     NaN		     NaN		     NaN		     NaN		
 1.250		     NaN		     NaN		     NaN		     NaN		     NaN		     NaN		     NaN		     NaN		     NaN		     NaN		  0.6756		  0.7006		  0.7439		  0.7819		  0.8276		  0.8449		  0.8878		  0.8890		  0.9177		  1.0290		  1.0914		  1.1661		  1.2669		  1.3776		  1.4902		  1.6202		  1.7566		  1.8877		  2.0263		  2.1862		  2.3222		  2.4314		  2.4775		  2.4279		  2.3034		  2.1445		  1.9869		  1.8012		  1.6256		  1.4709		  1.3254		  1.2011		  1.0764		  0.9754		  0.8780		  0.7854		  0.7123		  0.6440		  0.5739		  0.5482		     NaN		     NaN		     NaN		     NaN		
 1.260		     NaN		     NaN		     NaN		     NaN		     NaN		     NaN		     NaN		     NaN		     NaN		     NaN		     NaN		     NaN		     NaN		     NaN		  0.7980		  0.8451		  0.8977		  0.9534		  0.9698		  1.0263		  1.0311		  1.1327		  1.2821		  1.3347		  1.4536		  1.6310		  1.7684		  1.8999		  2.0396		  2.2006		  2.3375		  2.4476		  2.4944		  2.4449		  2.3205		  2.1615		  2.0037		  1.8171		  1.6408		  1.4854		  1.3392		  1.2139		  1.0887		  0.9868		  0.8885		  0.7952		  0.7213		  0.6524		  0.5812		  0.5526		     NaN		     NaN		     NaN		     NaN		
 1.270		     NaN		     NaN		     NaN		     NaN		     NaN		     NaN		     NaN		     NaN		     NaN		     NaN		     NaN		     NaN		     NaN		     NaN		     NaN		     NaN		     NaN		  0.8697		  0.9176		  1.0101		  1.0793		  1.0955		     NaN		     NaN		  1.3655		     NaN		     NaN		  1.8092		  2.0529		  2.2151		  2.3528		  2.4638		  2.5113		  2.4619		  2.3375		  2.1784		  2.0204		  1.8331		  1.6561		  1.4999		  1.3529		  1.2268		  1.1009		  0.9982		  0.8991		  0.8050		  0.7304		  0.6608		  0.5885		  0.5569		     NaN		     NaN		     NaN		     NaN		
 1.280		     NaN		     NaN		     NaN		     NaN		     NaN		     NaN		     NaN		     NaN		     NaN		     NaN		     NaN		     NaN		     NaN		     NaN		     NaN		     NaN		     NaN		     NaN		     NaN		     NaN		     NaN		  1.0091		  1.0731		  1.1559		     NaN		     NaN		     NaN		     NaN		     NaN		     NaN		  2.3681		  2.4801		  2.5282		  2.4788		  2.3546		  2.1953		  2.0372		  1.8490		  1.6713		  1.5143		  1.3666		  1.2396		  1.1131		  1.0095		  0.9096		  0.8147		  0.7394		  0.6692		  0.5958		  0.5613		     NaN		     NaN		     NaN		     NaN		
 1.290		     NaN		     NaN		     NaN		     NaN		     NaN		     NaN		     NaN		     NaN		     NaN		     NaN		     NaN		     NaN		     NaN		     NaN		     NaN		     NaN		     NaN		     NaN		     NaN		     NaN		     NaN		     NaN		     NaN		     NaN		     NaN		     NaN		  1.2593		     NaN		     NaN		     NaN		     NaN		     NaN		  2.5450		  2.4958		  2.3717		  2.2122		  2.0540		  1.8650		  1.6866		  1.5288		  1.3804		  1.2524		  1.1254		  1.0209		  0.9201		  0.8245		  0.7485		  0.6776		  0.6031		  0.5657		     NaN		     NaN		     NaN		     NaN		
 1.300		     NaN		     NaN		     NaN		     NaN		     NaN		     NaN		     NaN		     NaN		     NaN		     NaN		     NaN		     NaN		     NaN		     NaN		     NaN		     NaN		     NaN		     NaN		     NaN		     NaN		     NaN		     NaN		     NaN		     NaN		     NaN		     NaN		     NaN		     NaN		     NaN		     NaN		     NaN		     NaN		     NaN		     NaN		  2.3888		  2.2291		  2.0707		  1.8809		  1.7018		  1.5433		  1.3941		  1.2653		  1.1376		  1.0323		  0.9307		  0.8342		  0.7575		  0.6860		  0.6105		  0.5701		     NaN		     NaN		     NaN		     NaN		
 1.310		     NaN		     NaN		     NaN		     NaN		     NaN		     NaN		     NaN		     NaN		     NaN		     NaN		     NaN		     NaN		     NaN		     NaN		     NaN		     NaN		     NaN		     NaN		     NaN		     NaN		     NaN		     NaN		     NaN		     NaN		     NaN		     NaN		     NaN		     NaN		     NaN		     NaN		     NaN		     NaN		     NaN		     NaN		     NaN		     NaN		  2.0875		  1.8969		  1.7170		  1.5577		  1.4078		  1.2781		  1.1498		  1.0436		  0.9412		  0.8440		  0.7665		  0.6944		  0.6178		  0.5745		     NaN		     NaN		     NaN		     NaN		
 1.320		     NaN		     NaN		     NaN		     NaN		     NaN		     NaN		     NaN		     NaN		     NaN		     NaN		     NaN		     NaN		     NaN		     NaN		     NaN		     NaN		     NaN		     NaN		     NaN		     NaN		     NaN		     NaN		     NaN		     NaN		     NaN		     NaN		     NaN		     NaN		     NaN		     NaN		     NaN		     NaN		     NaN		     NaN		     NaN		     NaN		     NaN		  1.8550		  1.7323		  1.5722		  1.4215		  1.2910		  1.1621		  1.0550		  0.9517		  0.8537		  0.7756		  0.7028		  0.6251		  0.5789		     NaN		     NaN		     NaN		     NaN		
 1.330		     NaN		     NaN		     NaN		     NaN		     NaN		     NaN		     NaN		     NaN		     NaN		     NaN		     NaN		     NaN		     NaN		     NaN		     NaN		     NaN		     NaN		     NaN		     NaN		     NaN		     NaN		     NaN		     NaN		     NaN		     NaN		     NaN		     NaN		     NaN		     NaN		     NaN		     NaN		     NaN		     NaN		     NaN		     NaN		     NaN		     NaN		     NaN		     NaN		  1.5686		  1.4353		  1.3038		  1.1743		  1.0664		  0.9623		  0.8635		  0.7846		  0.7112		  0.6324		  0.5833		     NaN		     NaN		     NaN		     NaN		
 1.340		     NaN		     NaN		     NaN		     NaN		     NaN		     NaN		     NaN		     NaN		     NaN		     NaN		     NaN		     NaN		     NaN		     NaN		     NaN		     NaN		     NaN		     NaN		     NaN		     NaN		     NaN		     NaN		     NaN		     NaN		     NaN		     NaN		     NaN		     NaN		     NaN		     NaN		     NaN		     NaN		     NaN		     NaN		     NaN		     NaN		     NaN		     NaN		     NaN		     NaN		     NaN		     NaN		  1.1865		  1.0778		  0.9728		  0.8732		  0.7937		  0.7196		  0.6397		  0.5876		     NaN		     NaN		     NaN		     NaN		
 1.350		     NaN		     NaN		     NaN		     NaN		     NaN		     NaN		     NaN		     NaN		     NaN		     NaN		     NaN		     NaN		     NaN		     NaN		     NaN		     NaN		     NaN		     NaN		     NaN		     NaN		     NaN		     NaN		     NaN		     NaN		     NaN		     NaN		     NaN		     NaN		     NaN		     NaN		     NaN		     NaN		     NaN		     NaN		     NaN		     NaN		     NaN		     NaN		     NaN		     NaN		     NaN		     NaN		     NaN		     NaN		     NaN		  0.8830		  0.8027		  0.7280		  0.6470		  0.5920		     NaN		     NaN		     NaN		     NaN		
 1.360		     NaN		     NaN		     NaN		     NaN		     NaN		     NaN		     NaN		     NaN		     NaN		     NaN		     NaN		     NaN		     NaN		     NaN		     NaN		     NaN		     NaN		     NaN		     NaN		     NaN		     NaN		     NaN		     NaN		     NaN		     NaN		     NaN		     NaN		     NaN		     NaN		     NaN		     NaN		     NaN		     NaN		     NaN		     NaN		     NaN		     NaN		     NaN		     NaN		     NaN		     NaN		     NaN		     NaN		     NaN		     NaN		     NaN		     NaN		     NaN		     NaN		  0.5964		     NaN		     NaN		     NaN		     NaN		
