Data from https://doi.org/10.1002/adma.201903577
Upon cooling
Temperature(K)	Heat capacity(J/kg/K)

146.14	329.42
146.17	329.36
146.2	329.37
146.24	329.41
146.27	329.46
146.3	329.55
146.34	329.66
146.37	329.72
146.4	329.7
146.44	329.65
146.47	329.66
146.5	329.79
146.54	329.94
146.57	330.04
146.61	330.06
146.64	330.01
146.67	329.98
146.71	329.94
146.74	329.84
146.77	329.75
146.81	329.75
146.84	329.81
146.87	329.9
146.91	330
146.94	330.08
146.97	330.02
147.01	329.86
147.04	329.8
147.07	329.83
147.11	329.89
147.14	329.99
147.17	330.12
147.21	330.25
147.24	330.36
147.28	330.42
147.31	330.46
147.34	330.51
147.38	330.52
147.41	330.5
147.44	330.49
147.47	330.51
147.51	330.55
147.54	330.59
147.58	330.57
147.61	330.46
147.64	330.38
147.68	330.38
147.71	330.47
147.74	330.65
147.78	330.86
147.81	331.06
147.85	331.23
147.88	331.32
147.91	331.37
147.95	331.37
147.98	331.29
148.01	331.21
148.05	331.17
148.08	331.19
148.11	331.29
148.15	331.46
148.18	331.63
148.21	331.79
148.25	331.94
148.28	332.06
148.32	332.15
148.35	332.24
148.38	332.32
148.42	332.4
148.45	332.48
148.48	332.55
148.52	332.62
148.55	332.72
148.58	332.8
148.62	332.86
148.65	332.87
148.68	332.79
148.72	332.68
148.75	332.58
148.78	332.45
148.82	332.37
148.85	332.42
148.89	332.5
148.92	332.57
148.95	332.61
148.99	332.57
149.02	332.53
149.05	332.56
149.09	332.63
149.12	332.66
149.15	332.62
149.19	332.55
149.22	332.51
149.26	332.49
149.29	332.41
149.32	332.12
149.35	331.75
149.39	331.65
149.42	331.76
149.45	331.89
149.49	331.98
149.52	332.01
149.55	332
149.59	332
149.62	332.07
149.66	332.18
149.69	332.34
149.72	332.46
149.76	332.48
149.79	332.4
149.82	332.26
149.86	332.12
149.89	332.05
149.92	332.05
149.96	332.08
149.99	332.12
150.02	332.17
150.06	332.27
150.09	332.36
150.13	332.43
150.16	332.52
150.19	332.6
150.23	332.64
150.26	332.63
150.29	332.65
150.32	332.75
150.36	332.97
150.39	333.24
150.43	333.47
150.46	333.63
150.49	333.71
150.53	333.73
150.56	333.77
150.59	333.76
150.63	333.72
150.66	333.74
150.69	333.82
150.73	333.94
150.76	334.03
150.79	334.1
150.83	334.16
150.86	334.21
150.9	334.28
150.93	334.35
150.96	334.4
151	334.44
151.03	334.5
151.06	334.55
151.1	334.6
151.13	334.68
151.17	334.77
151.2	334.88
151.23	335.01
151.26	335.12
151.3	335.24
151.33	335.34
151.37	335.41
151.4	335.46
151.43	335.49
151.46	335.5
151.5	335.52
151.53	335.53
151.57	335.48
151.6	335.41
151.63	335.3
151.67	335.03
151.7	334.56
151.74	334.1
151.77	333.9
151.8	333.88
151.84	333.93
151.87	334.01
151.9	334.1
151.94	334.2
151.97	334.3
152	334.41
152.04	334.54
152.07	334.65
152.1	334.77
152.14	334.87
152.17	334.92
152.2	334.93
152.24	334.89
152.27	334.88
152.3	334.91
152.34	334.95
152.37	334.99
152.4	334.99
152.44	334.97
152.47	334.96
152.5	334.94
152.54	334.89
152.57	334.92
152.6	335
152.64	335.1
152.67	335.19
152.71	335.24
152.74	335.22
152.77	335.22
152.8	335.3
152.84	335.4
152.87	335.52
152.91	335.64
152.94	335.72
152.97	335.75
153.01	335.76
153.04	335.75
153.07	335.68
153.11	335.58
153.14	335.56
153.18	335.59
153.21	335.65
153.24	335.72
153.28	335.73
153.31	335.6
153.34	335.35
153.38	335.15
153.41	335.09
153.44	335.14
153.48	335.21
153.51	335.28
153.54	335.35
153.58	335.32
153.61	335.23
153.64	335.23
153.68	335.25
153.71	335.27
153.74	335.34
153.78	335.41
153.81	335.52
153.84	335.61
153.88	335.66
153.91	335.67
153.95	335.7
153.98	335.75
154.01	335.81
154.05	335.87
154.08	335.88
154.12	335.81
154.15	335.74
154.18	335.73
154.21	335.78
154.25	335.86
154.28	335.97
154.31	336.08
154.35	336.17
154.38	336.24
154.42	336.31
154.45	336.35
154.48	336.35
154.51	336.21
154.55	336
154.58	335.86
154.61	335.82
154.65	335.84
154.68	335.87
154.71	335.91
154.75	335.95
154.78	336.01
154.82	336.07
154.85	336.13
154.88	336.19
154.92	336.24
154.95	336.29
154.98	336.37
155.02	336.45
155.05	336.55
155.09	336.62
155.12	336.65
155.15	336.6
155.18	336.53
155.22	336.5
155.25	336.51
155.29	336.5
155.32	336.49
155.35	336.51
155.39	336.56
155.42	336.64
155.45	336.74
155.49	336.85
155.52	336.95
155.56	337.03
155.59	337.09
155.62	337.12
155.66	337.14
155.69	337.16
155.72	337.17
155.75	337.24
155.79	337.32
155.82	337.32
155.85	337.32
155.89	337.28
155.92	337.23
155.96	337.24
155.99	337.28
156.02	337.31
156.06	337.34
156.09	337.38
156.12	337.43
156.16	337.5
156.19	337.55
156.22	337.54
156.26	337.53
156.29	337.57
156.32	337.65
156.36	337.75
156.39	337.85
156.43	337.91
156.46	337.96
156.49	338.02
156.53	338.06
156.56	338.08
156.59	338.05
156.62	338.02
156.66	338.06
156.69	338.12
156.73	338.18
156.76	338.24
156.79	338.29
156.83	338.33
156.86	338.35
156.89	338.37
156.93	338.43
156.96	338.46
156.99	338.45
157.03	338.44
157.06	338.47
157.1	338.51
157.13	338.55
157.16	338.6
157.2	338.65
157.23	338.7
157.26	338.75
157.3	338.76
157.33	338.74
157.36	338.72
157.4	338.71
157.43	338.61
157.46	338.49
157.5	338.47
157.53	338.52
157.56	338.6
157.6	338.67
157.63	338.7
157.66	338.72
157.7	338.74
157.73	338.76
157.76	338.8
157.8	338.85
157.83	338.93
157.86	339.02
157.9	339.1
157.93	339.16
157.97	339.22
158	339.27
158.03	339.35
158.06	339.45
158.1	339.53
158.13	339.59
158.16	339.63
158.2	339.68
158.23	339.72
158.27	339.76
158.3	339.81
158.33	339.86
158.37	339.94
158.4	340.01
158.43	340.09
158.47	340.15
158.5	340.18
158.54	340.16
158.57	340.09
158.6	340.03
158.64	340.02
158.67	340.01
158.7	340.01
158.74	340.03
158.77	340.08
158.8	340.12
158.84	340.16
158.87	340.22
158.91	340.28
158.94	340.34
158.97	340.39
159	340.45
159.04	340.53
159.07	340.61
159.11	340.67
159.14	340.73
159.17	340.77
159.21	340.83
159.24	340.89
159.27	340.97
159.3	341.05
159.34	341.14
159.37	341.22
159.41	341.27
159.44	341.3
159.47	341.32
159.51	341.34
159.54	341.38
159.57	341.43
159.61	341.49
159.64	341.53
159.67	341.55
159.71	341.58
159.74	341.64
159.77	341.73
159.81	341.85
159.84	341.98
159.88	342.11
159.91	342.22
159.94	342.31
159.98	342.4
160.01	342.51
160.04	342.59
160.08	342.66
160.11	342.67
160.14	342.62
160.18	342.58
160.21	342.58
160.24	342.59
160.28	342.57
160.31	342.48
160.34	342.37
160.38	342.26
160.41	342.1
160.44	341.88
160.48	341.67
160.51	341.53
160.55	341.48
160.58	341.48
160.61	341.52
160.64	341.6
160.68	341.69
160.71	341.77
160.74	341.84
160.78	341.91
160.81	341.99
160.85	342.07
160.88	342.13
160.91	342.16
160.95	342.11
160.98	341.99
161.01	341.91
161.05	341.9
161.08	341.92
161.11	341.94
161.15	341.98
161.18	342.01
161.21	342.04
161.25	342.06
161.28	342.09
161.31	342.15
161.35	342.23
161.38	342.32
161.42	342.39
161.45	342.41
161.48	342.4
161.51	342.42
161.55	342.49
161.58	342.59
161.61	342.75
161.65	342.88
161.68	342.97
161.72	343.05
161.75	343.11
161.78	343.16
161.82	343.19
161.85	343.23
161.88	343.29
161.92	343.36
161.95	343.42
161.98	343.47
162.02	343.5
162.05	343.51
162.08	343.47
162.12	343.3
162.15	343.07
162.19	342.97
162.22	343
162.25	343.06
162.29	343.11
162.32	343.15
162.35	343.2
162.39	343.28
162.42	343.38
162.45	343.5
162.49	343.6
162.52	343.67
162.55	343.73
162.59	343.76
162.62	343.78
162.65	343.78
162.69	343.77
162.72	343.74
162.75	343.72
162.79	343.73
162.82	343.75
162.85	343.77
162.89	343.75
162.92	343.7
162.95	343.67
162.99	343.72
163.02	343.76
163.06	343.79
163.09	343.8
163.13	343.81
163.16	343.83
163.19	343.86
163.22	343.92
163.26	343.98
163.29	344.05
163.32	344.12
163.36	344.18
163.39	344.25
163.42	344.32
163.46	344.38
163.49	344.43
163.52	344.49
163.56	344.56
163.59	344.6
163.62	344.56
163.66	344.42
163.69	344.25
163.73	344.16
163.76	344.18
163.79	344.23
163.82	344.3
163.86	344.36
163.89	344.41
163.93	344.47
163.96	344.51
163.99	344.53
164.03	344.53
164.06	344.53
164.09	344.54
164.13	344.58
164.16	344.61
164.19	344.65
164.23	344.69
164.26	344.71
164.3	344.74
164.33	344.78
164.36	344.82
164.4	344.85
164.43	344.88
164.46	344.9
164.5	344.89
164.53	344.84
164.56	344.82
164.6	344.84
164.63	344.88
164.66	344.93
164.7	344.99
164.73	345.04
164.76	345.08
164.8	345.13
164.83	345.18
164.86	345.25
164.9	345.31
164.93	345.38
164.96	345.45
165	345.51
165.03	345.56
165.07	345.56
165.1	345.55
165.13	345.56
165.17	345.6
165.2	345.64
165.23	345.66
165.27	345.65
165.3	345.65
165.33	345.68
165.37	345.71
165.4	345.75
165.43	345.78
165.47	345.8
165.5	345.84
165.53	345.9
165.57	345.97
165.6	346.07
165.64	346.16
165.67	346.22
165.7	346.28
165.73	346.35
165.77	346.41
165.8	346.47
165.84	346.52
165.87	346.58
165.9	346.63
165.94	346.69
165.97	346.74
166	346.79
166.03	346.84
166.07	346.9
166.1	346.97
166.14	347.03
166.17	347.09
166.2	347.13
166.24	347.13
166.27	347.11
166.3	347.1
166.34	347.12
166.37	347.17
166.4	347.23
166.44	347.19
166.47	347.02
166.51	346.83
166.54	346.74
166.57	346.72
166.6	346.77
166.64	346.83
166.67	346.88
166.7	346.91
166.74	346.92
166.77	346.89
166.81	346.86
166.84	346.9
166.87	347
166.91	347.11
166.94	347.22
166.97	347.3
167.01	347.37
167.04	347.42
167.07	347.47
167.11	347.53
167.14	347.6
167.17	347.66
167.21	347.71
167.24	347.75
167.27	347.74
167.31	347.67
167.34	347.54
167.37	347.41
167.41	347.36
167.44	347.38
167.48	347.42
167.51	347.46
167.54	347.52
167.57	347.58
167.61	347.67
167.64	347.76
167.68	347.86
167.71	347.95
167.74	348.04
167.78	348.12
167.81	348.18
167.84	348.2
167.88	348.2
167.91	348.18
167.94	348.2
167.98	348.26
168.01	348.32
168.04	348.36
168.08	348.3
168.11	348.14
168.14	348.03
168.18	348.05
168.21	348.1
168.24	348.13
168.28	348.18
168.31	348.24
168.35	348.34
168.38	348.47
168.41	348.57
168.45	348.63
168.48	348.68
168.51	348.74
168.55	348.83
168.58	348.92
168.61	348.99
168.65	349.02
168.68	349
168.71	348.97
168.75	348.93
168.78	348.93
168.81	348.96
168.85	348.95
168.88	348.91
168.91	348.9
168.95	348.88
168.98	348.88
169.01	348.9
169.05	348.94
169.08	349
169.12	349.06
169.15	349.09
169.18	349.12
169.22	349.17
169.25	349.26
169.28	349.35
169.32	349.42
169.35	349.47
169.38	349.52
169.42	349.58
169.45	349.64
169.48	349.67
169.52	349.66
169.55	349.63
169.59	349.64
169.62	349.7
169.65	349.78
169.68	349.86
169.72	349.91
169.75	349.9
169.79	349.84
169.82	349.75
169.85	349.71
169.89	349.71
169.92	349.7
169.95	349.67
169.99	349.68
170.02	349.71
170.05	349.74
170.08	349.78
170.12	349.82
170.15	349.86
170.19	349.93
170.22	350
170.25	350.09
170.29	350.16
170.32	350.22
170.36	350.25
170.39	350.27
170.42	350.29
170.45	350.32
170.49	350.38
170.52	350.45
170.55	350.5
170.59	350.53
170.62	350.55
170.65	350.58
170.69	350.62
170.72	350.66
170.75	350.68
170.79	350.7
170.82	350.73
170.85	350.79
170.89	350.85
170.92	350.91
170.96	350.96
170.99	351.01
171.02	351.06
171.06	351.11
171.09	351.14
171.12	351.16
171.16	351.18
171.19	351.2
171.22	351.23
171.26	351.27
171.29	351.29
171.32	351.3
171.36	351.33
171.39	351.38
171.42	351.41
171.46	351.38
171.49	351.22
171.53	350.96
171.56	350.7
171.59	350.59
171.62	350.62
171.66	350.65
171.69	350.67
171.73	350.68
171.76	350.71
171.79	350.75
171.82	350.8
171.86	350.84
171.89	350.86
171.93	350.86
171.96	350.83
171.99	350.82
172.02	350.86
172.06	350.91
172.09	350.97
172.13	351.03
172.16	351.08
172.19	351.12
172.23	351.13
172.26	351.15
172.29	351.17
172.33	351.19
172.36	351.21
172.39	351.2
172.43	351.15
172.46	351.13
172.5	351.14
172.53	351.12
172.56	351.08
172.6	351.03
172.63	351.01
172.66	351.03
172.7	351.05
172.73	351.07
172.76	351.11
172.8	351.17
172.83	351.25
172.86	351.32
172.9	351.37
172.93	351.42
172.96	351.47
173	351.53
173.03	351.59
173.06	351.67
173.1	351.75
173.13	351.82
173.17	351.89
173.2	351.95
173.23	352.01
173.26	352.06
173.3	352.09
173.33	352.11
173.37	352.12
173.4	352.1
173.43	352.09
173.46	352.13
173.5	352.17
173.53	352.2
173.57	352.18
173.6	352.11
173.63	352.05
173.67	352.05
173.7	352.08
173.73	352.13
173.77	352.17
173.8	352.19
173.83	352.21
173.87	352.25
173.9	352.3
173.94	352.36
173.97	352.41
174	352.46
174.03	352.51
174.07	352.57
174.1	352.64
174.13	352.69
174.17	352.74
174.2	352.77
174.23	352.8
174.27	352.84
174.3	352.89
174.33	352.95
174.37	353.01
174.4	353.05
174.43	353.08
174.47	353.11
174.5	353.13
174.53	353.16
174.57	353.18
174.6	353.19
174.64	353.22
174.67	353.27
174.7	353.33
174.74	353.35
174.77	353.3
174.8	353.26
174.84	353.28
174.87	353.31
174.9	353.33
174.94	353.37
174.97	353.41
175	353.47
175.04	353.55
175.07	353.63
175.1	353.72
175.14	353.81
175.17	353.89
175.2	353.93
175.24	353.95
175.27	353.9
175.31	353.76
175.34	353.63
175.37	353.58
175.41	353.53
175.44	353.43
175.47	353.29
175.5	353.13
175.54	353.05
175.57	353.06
175.61	353.09
175.64	353.11
175.67	353.1
175.71	353.06
175.74	353.02
175.77	352.98
175.81	352.94
175.84	352.94
175.87	352.96
175.91	353
175.94	353.03
175.97	353.08
176.01	353.13
176.04	353.17
176.07	353.18
176.11	353.19
176.14	353.21
176.17	353.25
176.21	353.29
176.24	353.34
176.27	353.38
176.31	353.45
176.34	353.55
176.37	353.63
176.41	353.69
176.44	353.73
176.48	353.77
176.51	353.84
176.54	353.88
176.58	353.93
176.61	354.01
176.64	354.08
176.68	354.14
176.71	354.19
176.74	354.24
176.78	354.3
176.81	354.36
176.84	354.42
176.88	354.48
176.91	354.53
176.94	354.59
176.98	354.66
177.01	354.73
177.04	354.78
177.08	354.82
177.11	354.84
177.14	354.86
177.18	354.87
177.21	354.9
177.25	354.95
177.28	354.99
177.31	355.02
177.34	355.02
177.38	354.98
177.41	354.95
177.44	355
177.48	355.06
177.51	355.13
177.55	355.19
177.58	355.25
177.61	355.3
177.65	355.34
177.68	355.38
177.71	355.41
177.75	355.43
177.78	355.46
177.81	355.51
177.85	355.56
177.88	355.6
177.91	355.61
177.95	355.62
177.98	355.64
178.01	355.68
178.05	355.72
178.08	355.75
178.11	355.78
178.15	355.81
178.18	355.83
178.21	355.85
178.25	355.88
178.28	355.91
178.32	355.92
178.35	355.9
178.38	355.9
178.42	355.95
178.45	356
178.48	356.02
178.52	355.98
178.55	355.91
178.58	355.82
178.62	355.82
178.65	355.89
178.68	355.98
178.72	356.04
178.75	356.09
178.78	356.15
178.82	356.23
178.85	356.35
178.88	356.47
178.92	356.57
178.95	356.65
178.98	356.73
179.02	356.8
179.05	356.86
179.08	356.9
179.12	356.93
179.15	356.97
179.18	357.02
179.22	357.08
179.25	357.12
179.29	357.06
179.32	356.95
179.35	356.82
179.39	356.73
179.42	356.72
179.45	356.74
179.49	356.78
179.52	356.84
179.55	356.9
179.59	356.97
179.62	357.06
179.65	357.15
179.69	357.23
179.72	357.31
179.75	357.35
179.79	357.36
179.82	357.36
179.85	357.38
179.89	357.42
179.92	357.47
179.96	357.52
179.99	357.56
180.02	357.6
180.05	357.62
180.09	357.61
180.12	357.6
180.16	357.59
180.19	357.61
180.22	357.64
180.26	357.66
180.29	357.68
180.32	357.7
180.36	357.75
180.39	357.8
180.42	357.83
180.46	357.84
180.49	357.84
180.52	357.86
180.56	357.92
180.59	357.97
180.63	358.01
180.66	358.05
180.69	358.08
180.72	358.1
180.76	358.1
180.79	358.11
180.83	358.16
180.86	358.23
180.89	358.31
180.93	358.36
180.96	358.41
180.99	358.45
181.02	358.5
181.06	358.55
181.09	358.6
181.12	358.65
181.16	358.69
181.19	358.72
181.22	358.68
181.26	358.57
181.29	358.5
181.32	358.47
181.36	358.49
181.39	358.53
181.42	358.59
181.46	358.66
181.49	358.71
181.52	358.74
181.56	358.75
181.59	358.77
181.63	358.82
181.66	358.88
181.69	358.95
181.72	359.03
181.76	359.13
181.79	359.21
181.83	359.24
181.86	359.23
181.89	359.19
181.93	359.17
181.96	359.17
181.99	359.16
182.03	359.12
182.06	359.12
182.1	359.14
182.13	359.17
182.16	359.2
182.19	359.23
182.23	359.25
182.26	359.28
182.3	359.28
182.33	359.28
182.36	359.29
182.4	359.32
182.43	359.35
182.46	359.38
182.5	359.43
182.53	359.5
182.56	359.58
182.6	359.65
182.63	359.72
182.67	359.78
182.7	359.82
182.73	359.87
182.77	359.91
182.8	359.92
182.83	359.92
182.86	359.97
182.9	360.04
182.93	360.11
182.96	360.16
183	360.11
183.03	359.96
183.06	359.81
183.1	359.74
183.13	359.73
183.16	359.72
183.2	359.68
183.23	359.66
183.26	359.7
183.3	359.76
183.33	359.83
183.36	359.89
183.4	359.97
183.43	360.06
183.46	360.13
183.5	360.19
183.53	360.25
183.57	360.31
183.6	360.38
183.63	360.45
183.67	360.53
183.7	360.63
183.73	360.72
183.77	360.8
183.8	360.84
183.83	360.83
183.87	360.8
183.9	360.81
183.93	360.85
183.97	360.83
184	360.69
184.03	360.54
184.06	360.48
184.1	360.5
184.13	360.53
184.17	360.58
184.2	360.62
184.24	360.64
184.27	360.65
184.3	360.67
184.33	360.71
184.37	360.75
184.4	360.79
184.44	360.83
184.47	360.87
184.5	360.92
184.53	360.97
184.57	360.99
184.6	360.98
184.63	360.97
184.67	361.01
184.7	361.07
184.74	361.13
184.77	361.18
184.8	361.21
184.84	361.2
184.87	361.11
184.91	361.04
184.94	361.04
184.97	361.07
185	361.1
185.04	361.14
185.07	361.17
185.1	361.21
185.14	361.24
185.17	361.25
185.2	361.18
185.24	361.11
185.27	361.06
185.3	361.05
185.34	361.07
185.37	361.12
185.41	361.18
185.44	361.23
185.47	361.27
185.51	361.31
185.54	361.35
185.57	361.4
185.6	361.45
185.64	361.5
185.67	361.55
185.71	361.57
185.74	361.58
185.77	361.61
185.81	361.64
185.84	361.69
185.87	361.7
185.91	361.65
185.94	361.57
185.97	361.53
186.01	361.54
186.04	361.55
186.08	361.53
186.11	361.53
186.14	361.58
186.17	361.63
186.21	361.67
186.24	361.7
186.27	361.72
186.31	361.74
186.34	361.78
186.37	361.83
186.41	361.87
186.44	361.91
186.48	361.92
186.51	361.9
186.54	361.84
186.58	361.8
186.61	361.8
186.64	361.82
186.68	361.83
186.71	361.84
186.74	361.86
186.78	361.9
186.81	361.95
186.84	362
186.88	362.04
186.91	362.09
186.95	362.14
186.98	362.2
187.01	362.25
187.04	362.3
187.08	362.35
187.11	362.39
187.14	362.42
187.18	362.43
187.21	362.43
187.24	362.4
187.28	362.37
187.31	362.36
187.34	362.36
187.38	362.36
187.41	362.36
187.44	362.39
187.48	362.43
187.51	362.48
187.55	362.52
187.58	362.57
187.61	362.61
187.65	362.66
187.68	362.69
187.71	362.73
187.75	362.79
187.78	362.86
187.81	362.92
187.85	362.96
187.88	362.99
187.91	362.99
187.94	363
187.98	363.01
188.01	363.04
188.05	363.07
188.08	363.1
188.11	363.12
188.15	363.14
188.18	363.18
188.21	363.21
188.25	363.23
188.28	363.24
188.32	363.26
188.35	363.31
188.38	363.37
188.42	363.43
188.45	363.47
188.48	363.5
188.51	363.54
188.55	363.56
188.58	363.57
188.62	363.56
188.65	363.56
188.68	363.58
188.71	363.62
188.75	363.66
188.78	363.72
188.81	363.77
188.85	363.82
188.88	363.86
188.92	363.89
188.95	363.9
188.98	363.85
189.01	363.78
189.05	363.75
189.08	363.77
189.12	363.81
189.15	363.85
189.18	363.9
189.21	363.95
189.25	364
189.28	364.04
189.32	364.09
189.35	364.14
189.38	364.2
189.42	364.27
189.45	364.34
189.48	364.42
189.52	364.48
189.55	364.53
189.58	364.54
189.62	364.52
189.65	364.51
189.68	364.51
189.72	364.52
189.75	364.55
189.78	364.59
189.82	364.63
189.85	364.66
189.88	364.65
189.92	364.61
189.95	364.61
189.98	364.64
190.02	364.67
190.05	364.7
190.09	364.72
190.12	364.73
190.15	364.75
190.19	364.76
190.22	364.79
190.25	364.79
190.29	364.73
190.32	364.68
190.35	364.69
190.39	364.73
190.42	364.76
190.45	364.79
190.49	364.8
190.52	364.84
190.56	364.91
190.59	364.99
190.62	365.06
190.65	365.1
190.69	365.14
190.72	365.17
190.75	365.2
190.79	365.24
190.82	365.28
190.85	365.34
190.89	365.39
190.92	365.43
190.95	365.47
190.99	365.51
191.02	365.54
191.05	365.58
191.09	365.62
191.12	365.64
191.15	365.64
191.19	365.63
191.22	365.66
191.26	365.76
191.29	365.88
191.32	365.93
191.36	365.93
191.39	365.91
191.42	365.92
191.46	365.94
191.49	365.97
191.53	366
191.56	366.01
191.59	366.03
191.62	366.04
191.66	366.05
191.69	366.06
191.72	366.08
191.76	366.1
191.79	366.13
191.82	366.17
191.86	366.21
191.89	366.24
191.93	366.26
191.96	366.27
191.99	366.26
192.02	366.26
192.05	366.29
192.09	366.34
192.12	366.38
192.16	366.42
192.19	366.47
192.22	366.52
192.26	366.56
192.29	366.57
192.32	366.55
192.36	366.54
192.39	366.57
192.43	366.61
192.46	366.66
192.49	366.73
192.52	366.8
192.56	366.88
192.59	366.95
192.63	366.99
192.66	367.01
192.69	367.03
192.73	367.06
192.76	367.1
192.79	367.15
192.83	367.2
192.86	367.25
192.89	367.27
192.92	367.26
192.96	367.24
192.99	367.21
193.03	367.21
193.06	367.25
193.09	367.28
193.13	367.29
193.16	367.3
193.19	367.32
193.23	367.35
193.26	367.4
193.3	367.46
193.33	367.52
193.36	367.58
193.39	367.64
193.43	367.72
193.46	367.81
193.49	367.91
193.53	367.97
193.56	368.03
193.6	368.08
193.63	368.13
193.66	368.19
193.69	368.25
193.73	368.31
193.76	368.36
193.8	368.41
193.83	368.46
193.86	368.5
193.89	368.54
193.93	368.56
193.96	368.58
194	368.61
194.03	368.62
194.06	368.63
194.1	368.62
194.13	368.62
194.16	368.64
194.2	368.68
194.23	368.72
194.26	368.78
194.3	368.83
194.33	368.89
194.36	368.94
194.4	368.99
194.43	369.05
194.46	369.11
194.5	369.18
194.53	369.25
194.56	369.31
194.6	369.38
194.63	369.44
194.66	369.51
194.7	369.58
194.73	369.64
194.77	369.68
194.8	369.71
194.83	369.7
194.86	369.63
194.9	369.52
194.93	369.42
194.97	369.36
195	369.31
195.03	369.23
195.07	369.13
195.1	369.04
195.13	368.96
195.17	368.87
195.2	368.8
195.23	368.74
195.27	368.72
195.3	368.7
195.33	368.68
195.37	368.67
195.4	368.69
195.43	368.73
195.47	368.79
195.5	368.86
195.53	368.95
195.57	369.04
195.6	369.11
195.63	369.17
195.67	369.23
195.7	369.28
195.74	369.33
195.77	369.38
195.8	369.43
195.83	369.48
195.87	369.54
195.9	369.59
195.93	369.64
195.97	369.68
196	369.71
196.03	369.75
196.07	369.82
196.1	369.9
196.14	369.97
196.17	370.03
196.2	370.06
196.23	370.07
196.27	370.08
196.3	370.1
196.33	370.13
196.37	370.16
196.4	370.15
196.43	370.1
196.47	370.06
196.5	370.05
196.53	370.06
196.57	370.08
196.6	370.11
196.64	370.16
196.67	370.22
196.7	370.26
196.74	370.31
196.77	370.41
196.8	370.57
196.84	370.7
196.87	370.78
196.9	370.84
196.94	370.89
196.97	370.95
197.01	371.01
197.04	371.07
197.07	371.12
197.1	371.17
197.14	371.2
197.17	371.2
197.2	371.21
197.24	371.23
197.27	371.27
197.3	371.3
197.34	371.33
197.37	371.32
197.4	371.32
197.44	371.34
197.47	371.38
197.5	371.43
197.54	371.5
197.57	371.57
197.61	371.63
197.64	371.69
197.67	371.75
197.71	371.81
197.74	371.81
197.77	371.79
197.81	371.79
197.84	371.84
197.87	371.91
197.9	371.99
197.94	372.05
197.97	372.09
198.01	372.15
198.04	372.2
198.07	372.21
198.1	372.09
198.14	371.91
198.17	371.79
198.21	371.79
198.24	371.83
198.27	371.88
198.31	371.91
198.34	371.96
198.37	372.02
198.41	372.07
198.44	372.13
198.48	372.19
198.51	372.26
198.54	372.32
198.57	372.38
198.61	372.44
198.64	372.52
198.68	372.6
198.71	372.69
198.74	372.77
198.78	372.83
198.81	372.89
198.84	372.92
198.87	372.93
198.91	372.95
198.94	373
198.97	373.07
199.01	373.11
199.04	373.13
199.07	373.14
199.11	373.16
199.14	373.15
199.17	373.02
199.21	372.82
199.24	372.66
199.27	372.57
199.31	372.56
199.34	372.6
199.37	372.64
199.41	372.69
199.44	372.74
199.47	372.79
199.51	372.84
199.54	372.9
199.57	372.95
199.61	372.98
199.64	373.03
199.67	373.1
199.71	373.18
199.74	373.27
199.78	373.34
199.81	373.4
199.84	373.45
199.88	373.5
199.91	373.56
199.94	373.62
199.98	373.65
200.01	373.58
200.04	373.42
200.08	373.31
200.11	373.3
200.14	373.34
200.18	373.42
200.21	373.46
200.24	373.38
200.28	373.29
200.31	373.29
200.34	373.33
200.38	373.38
200.41	373.43
200.44	373.51
200.48	373.59
200.51	373.66
200.54	373.71
200.58	373.7
200.61	373.65
200.65	373.64
200.68	373.68
200.71	373.74
200.75	373.81
200.78	373.86
200.81	373.91
200.85	373.94
200.88	373.9
200.91	373.75
200.95	373.55
200.98	373.43
201.01	373.4
201.05	373.41
201.08	373.43
201.11	373.46
201.15	373.5
201.18	373.55
201.21	373.58
201.25	373.61
201.28	373.61
201.31	373.63
201.35	373.66
201.38	373.69
201.41	373.7
201.45	373.71
201.48	373.7
201.51	373.72
201.55	373.76
201.58	373.81
201.61	373.86
201.65	373.9
201.68	373.94
201.71	373.97
201.75	374.01
201.78	374.06
201.81	374.11
201.85	374.15
201.88	374.19
201.92	374.23
201.95	374.29
201.98	374.36
202.01	374.44
202.05	374.51
202.08	374.56
202.12	374.6
202.15	374.66
202.18	374.71
202.21	374.77
202.25	374.83
202.28	374.87
202.31	374.88
202.35	374.9
202.38	374.94
202.41	374.98
202.45	375.02
202.48	375.04
202.52	374.99
202.55	374.9
202.58	374.85
202.62	374.84
202.65	374.83
202.68	374.78
202.72	374.68
202.75	374.57
202.78	374.51
202.82	374.51
202.85	374.55
202.88	374.59
202.92	374.64
202.95	374.7
202.98	374.77
203.02	374.85
203.05	374.92
203.08	374.98
203.12	375.03
203.15	375.07
203.18	375.11
203.22	375.15
203.25	375.2
203.28	375.24
203.32	375.26
203.35	375.26
203.38	375.27
203.42	375.31
203.45	375.35
203.48	375.4
203.52	375.44
203.55	375.47
203.58	375.49
203.62	375.52
203.65	375.55
203.69	375.57
203.72	375.58
203.75	375.61
203.78	375.65
203.82	375.7
203.85	375.76
203.89	375.79
203.92	375.75
203.95	375.63
203.99	375.5
204.02	375.39
204.05	375.34
204.08	375.38
204.12	375.43
204.15	375.48
204.19	375.53
204.22	375.58
204.25	375.62
204.29	375.65
204.32	375.7
204.35	375.75
204.39	375.8
204.42	375.86
204.45	375.93
204.49	375.99
204.52	376.05
204.55	376.06
204.59	376.04
204.62	376.05
204.65	376.1
204.69	376.15
204.72	376.21
204.75	376.27
204.79	376.31
204.82	376.35
204.85	376.39
204.89	376.42
204.92	376.45
204.95	376.48
204.99	376.46
205.02	376.38
205.05	376.27
205.09	376.2
205.12	376.21
205.15	376.24
205.19	376.26
205.22	376.23
205.25	376.16
205.29	376.12
205.32	376.13
205.35	376.17
205.39	376.21
205.42	376.24
205.45	376.26
205.49	376.3
205.52	376.33
205.56	376.37
205.59	376.41
205.62	376.45
205.66	376.49
205.69	376.53
205.72	376.56
205.76	376.6
205.79	376.62
205.82	376.66
205.86	376.7
205.89	376.75
205.92	376.8
205.96	376.85
205.99	376.89
206.02	376.92
206.06	376.94
206.09	376.9
206.12	376.77
206.16	376.65
206.19	376.64
206.22	376.69
206.26	376.74
206.29	376.8
206.32	376.85
206.36	376.91
206.39	376.96
206.42	376.99
206.46	377.03
206.49	377.06
206.53	377.09
206.56	377.12
206.59	377.16
206.62	377.21
206.66	377.28
206.69	377.35
206.72	377.43
206.76	377.49
206.79	377.55
206.82	377.62
206.86	377.69
206.89	377.75
206.92	377.81
206.96	377.88
206.99	377.94
207.02	378
207.06	378.04
207.09	378.06
207.12	378.09
207.16	378.11
207.19	378.12
207.23	378.12
207.26	378.09
207.29	378.05
207.32	378.07
207.36	378.1
207.39	378.13
207.42	378.12
207.46	378.08
207.49	378.06
207.53	378.09
207.56	378.14
207.59	378.18
207.63	378.21
207.66	378.22
207.69	378.25
207.73	378.28
207.76	378.32
207.8	378.35
207.83	378.38
207.86	378.42
207.89	378.47
207.93	378.53
207.96	378.57
208	378.53
208.03	378.4
208.06	378.32
208.09	378.34
208.13	378.4
208.16	378.46
208.19	378.52
208.23	378.56
208.26	378.6
208.29	378.65
208.33	378.7
208.36	378.75
208.39	378.79
208.43	378.83
208.46	378.87
208.49	378.89
208.53	378.91
208.56	378.92
208.6	378.95
208.63	379
208.66	379.06
208.69	379.1
208.73	379.14
208.76	379.17
208.8	379.2
208.83	379.25
208.86	379.33
208.9	379.38
208.93	379.42
208.96	379.46
208.99	379.48
209.03	379.48
209.06	379.48
209.1	379.5
209.13	379.52
209.16	379.53
209.2	379.42
209.23	379.25
209.26	379.15
209.3	379.14
209.33	379.16
209.36	379.15
209.4	379.04
209.43	378.95
209.46	378.93
209.5	378.94
209.53	378.96
209.56	378.99
209.6	379.02
209.63	379.06
209.66	379.11
209.7	379.15
209.73	379.19
209.77	379.22
209.8	379.24
209.83	379.25
209.87	379.26
209.9	379.28
209.93	379.29
209.97	379.27
210	379.25
210.03	379.26
210.06	379.3
210.1	379.34
210.13	379.39
210.17	379.42
210.2	379.44
210.23	379.47
210.27	379.49
210.3	379.51
210.33	379.52
210.37	379.54
210.4	379.58
210.43	379.63
210.46	379.68
210.5	379.73
210.53	379.78
210.57	379.83
210.6	379.87
210.63	379.9
210.67	379.92
210.7	379.94
210.73	379.96
210.77	379.99
210.8	380.01
210.83	380.02
210.87	380.03
210.9	380.04
210.93	380
210.97	379.93
211	379.92
211.03	379.93
211.07	379.94
211.1	379.96
211.13	379.97
211.17	379.97
211.2	379.98
211.23	380.01
211.27	380.03
211.3	380.06
211.33	380.09
211.37	380.13
211.4	380.16
211.43	380.16
211.47	380.16
211.5	380.18
211.54	380.22
211.57	380.28
211.6	380.34
211.63	380.4
211.67	380.45
211.7	380.48
211.73	380.51
211.77	380.54
211.8	380.58
211.84	380.61
211.87	380.63
211.9	380.65
211.93	380.67
211.97	380.69
212	380.71
212.03	380.74
212.07	380.77
212.1	380.81
212.13	380.85
212.17	380.87
212.2	380.87
212.24	380.88
212.27	380.89
212.3	380.91
212.34	380.95
212.37	381.01
212.4	381.1
212.44	381.17
212.47	381.2
212.5	381.22
212.54	381.24
212.57	381.26
212.6	381.21
212.64	381.09
212.67	381.01
212.7	380.98
212.74	380.9
212.77	380.82
212.8	380.8
212.84	380.8
212.87	380.79
212.9	380.8
212.94	380.83
212.97	380.86
213	380.88
213.04	380.9
213.07	380.93
213.11	380.98
213.14	381.04
213.17	381.1
213.2	381.14
213.24	381.16
213.27	381.19
213.3	381.22
213.34	381.24
213.37	381.27
213.4	381.31
213.44	381.35
213.47	381.4
213.5	381.42
213.54	381.4
213.57	381.32
213.6	381.26
213.64	381.22
213.67	381.21
213.71	381.23
213.74	381.26
213.77	381.3
213.81	381.34
213.84	381.37
213.87	381.4
213.91	381.42
213.94	381.46
213.97	381.49
214.01	381.53
214.04	381.57
214.07	381.62
214.11	381.68
214.14	381.74
214.17	381.8
214.21	381.86
214.24	381.91
214.27	381.96
214.3	382.01
214.34	382.06
214.37	382.1
214.4	382.13
214.44	382.15
214.47	382.19
214.51	382.24
214.54	382.3
214.57	382.35
214.61	382.39
214.64	382.43
214.67	382.45
214.71	382.47
214.74	382.49
214.77	382.5
214.81	382.52
214.84	382.54
214.87	382.55
214.91	382.55
214.94	382.52
214.97	382.48
215.01	382.47
215.04	382.47
215.07	382.49
215.11	382.51
215.14	382.52
215.17	382.52
215.21	382.53
215.24	382.54
215.28	382.54
215.31	382.53
215.34	382.51
215.37	382.47
215.41	382.43
215.44	382.41
215.47	382.41
215.51	382.44
215.54	382.48
215.57	382.53
215.61	382.59
215.64	382.65
215.67	382.72
215.71	382.77
215.74	382.82
215.78	382.87
215.81	382.91
215.84	382.97
215.87	383.01
215.91	383.03
215.94	383.02
215.98	382.99
216.01	382.96
216.04	382.96
216.07	382.98
216.11	383
216.14	383.02
216.18	383.05
216.21	383.09
216.24	383.12
216.28	383.12
216.31	383.1
216.34	383.1
216.38	383.11
216.41	383.14
216.44	383.17
216.48	383.18
216.51	383.17
216.54	383.15
216.58	383.15
216.61	383.18
216.64	383.2
216.68	383.23
216.71	383.26
216.74	383.3
216.78	383.35
216.81	383.39
216.85	383.44
216.88	383.47
216.91	383.49
216.94	383.52
216.98	383.55
217.01	383.6
217.04	383.66
217.08	383.71
217.11	383.76
217.14	383.8
217.18	383.84
217.21	383.86
217.24	383.89
217.28	383.91
217.31	383.94
217.34	383.95
217.38	383.94
217.41	383.88
217.44	383.84
217.48	383.85
217.51	383.88
217.55	383.92
217.58	383.94
217.61	383.9
217.65	383.78
217.68	383.67
217.71	383.68
217.74	383.73
217.78	383.77
217.81	383.8
217.85	383.8
217.88	383.77
217.91	383.76
217.95	383.77
217.98	383.8
218.01	383.84
218.05	383.86
218.08	383.87
218.11	383.89
218.15	383.89
218.18	383.86
218.21	383.81
218.25	383.77
218.28	383.77
218.31	383.81
218.35	383.89
218.38	383.98
218.41	384.06
218.45	384.11
218.48	384.15
218.51	384.19
218.55	384.24
218.58	384.3
218.61	384.4
218.65	384.56
218.68	384.66
218.71	384.7
218.75	384.71
218.78	384.72
218.81	384.74
218.85	384.77
218.88	384.8
218.91	384.82
218.95	384.83
218.98	384.81
219.01	384.77
219.04	384.76
219.08	384.78
219.11	384.8
219.15	384.84
219.18	384.88
219.21	384.92
219.25	384.96
219.28	384.99
219.31	385
219.35	385.01
219.38	385.01
219.41	385.04
219.45	385.09
219.48	385.12
219.51	385.1
219.55	385.03
219.58	384.98
219.62	384.97
219.65	385
219.68	385.07
219.71	385.13
219.75	385.17
219.78	385.2
219.81	385.24
219.85	385.29
219.88	385.32
219.91	385.35
219.95	385.38
219.98	385.4
220.01	385.44
220.05	385.48
220.08	385.51
220.11	385.53
220.15	385.56
220.18	385.6
220.22	385.63
220.25	385.67
220.28	385.71
220.32	385.76
220.35	385.8
220.38	385.85
220.42	385.89
220.45	385.92
220.48	385.96
220.52	386.01
220.55	386.05
220.58	386.08
220.61	386.1
220.65	386.11
220.68	386.13
220.71	386.17
220.75	386.23
220.78	386.28
220.82	386.33
220.85	386.36
220.88	386.39
220.92	386.42
220.95	386.46
220.98	386.5
221.01	386.53
221.05	386.57
221.08	386.62
221.12	386.68
221.15	386.76
221.18	386.82
221.21	386.86
221.25	386.9
221.28	386.91
221.32	386.9
221.35	386.9
221.38	386.91
221.41	386.93
221.45	386.96
221.48	386.95
221.52	386.91
221.55	386.88
221.58	386.87
221.62	386.89
221.65	386.92
221.68	386.94
221.72	386.96
221.75	386.96
221.78	386.92
221.82	386.83
221.85	386.74
221.88	386.71
221.92	386.74
221.95	386.77
221.98	386.83
222.02	386.91
222.05	386.97
222.08	387
222.12	387.05
222.15	387.1
222.18	387.18
222.22	387.25
222.25	387.3
222.28	387.34
222.32	387.37
222.35	387.41
222.38	387.45
222.42	387.49
222.45	387.54
222.48	387.59
222.52	387.65
222.55	387.71
222.58	387.75
222.62	387.78
222.65	387.81
222.68	387.85
222.72	387.9
222.75	387.93
222.79	387.95
222.82	387.94
222.85	387.88
222.89	387.83
222.92	387.83
222.95	387.86
222.98	387.9
223.02	387.93
223.05	387.96
223.08	387.99
223.12	388.02
223.15	388.05
223.18	388.09
223.22	388.13
223.25	388.15
223.29	388.17
223.32	388.18
223.35	388.19
223.39	388.21
223.42	388.19
223.45	388.1
223.49	388
223.52	387.96
223.55	387.96
223.59	387.99
223.62	388.03
223.65	388.07
223.69	388.12
223.72	388.15
223.75	388.19
223.79	388.22
223.82	388.26
223.85	388.3
223.89	388.35
223.92	388.42
223.95	388.49
223.99	388.54
224.02	388.58
224.05	388.61
224.09	388.63
224.12	388.65
224.15	388.66
224.19	388.66
224.22	388.68
224.25	388.71
224.29	388.75
224.32	388.78
224.35	388.8
224.39	388.8
224.42	388.78
224.45	388.77
224.49	388.78
224.52	388.8
224.56	388.82
224.59	388.82
224.62	388.81
224.66	388.82
224.69	388.86
224.72	388.92
224.75	388.97
224.79	389.01
224.82	389.04
224.86	389.07
224.89	389.1
224.92	389.13
224.96	389.17
224.99	389.22
225.02	389.28
225.06	389.33
225.09	389.4
225.12	389.48
225.15	389.59
225.19	389.74
225.22	389.85
225.25	389.9
225.29	389.91
225.32	389.87
225.36	389.81
225.39	389.77
225.42	389.76
225.46	389.79
225.49	389.83
225.52	389.87
225.55	389.9
225.59	389.92
225.62	389.91
225.65	389.86
225.69	389.79
225.72	389.74
225.76	389.77
225.79	389.82
225.82	389.88
225.86	389.94
225.89	389.99
225.92	390.04
225.96	390.1
225.99	390.15
226.02	390.21
226.06	390.28
226.09	390.35
226.12	390.43
226.16	390.5
226.19	390.55
226.22	390.58
226.26	390.62
226.29	390.66
226.32	390.72
226.36	390.77
226.39	390.82
226.42	390.87
226.45	390.91
226.49	390.94
226.53	390.97
226.56	391
226.59	391.01
226.62	390.98
226.66	390.93
226.69	390.89
226.72	390.88
226.76	390.91
226.79	390.94
226.82	390.97
226.86	391.03
226.89	391.09
226.93	391.17
226.96	391.22
226.99	391.26
227.03	391.29
227.06	391.32
227.09	391.37
227.13	391.44
227.16	391.5
227.19	391.55
227.23	391.58
227.26	391.56
227.29	391.51
227.32	391.46
227.36	391.4
227.39	391.39
227.43	391.42
227.46	391.47
227.49	391.53
227.53	391.54
227.56	391.45
227.59	391.26
227.63	391.06
227.66	390.94
227.69	390.93
227.73	390.95
227.76	390.99
227.79	391.03
227.83	391.07
227.86	391.11
227.89	391.16
227.93	391.21
227.96	391.25
227.99	391.28
228.03	391.31
228.06	391.35
228.09	391.39
228.13	391.44
228.16	391.48
228.19	391.53
228.23	391.56
228.26	391.6
228.29	391.63
228.33	391.66
228.36	391.69
228.39	391.71
228.43	391.71
228.46	391.71
228.49	391.68
228.53	391.67
228.56	391.71
228.59	391.78
228.63	391.83
228.66	391.89
228.69	391.94
228.73	392
228.76	392.06
228.79	392.12
228.83	392.17
228.86	392.22
228.89	392.27
228.93	392.32
228.96	392.37
228.99	392.41
229.03	392.44
229.06	392.46
229.09	392.47
229.13	392.46
229.16	392.4
229.19	392.27
229.23	392.14
229.26	392.09
229.29	392.09
229.33	392.1
229.36	392.04
229.39	391.88
229.43	391.74
229.46	391.7
229.5	391.72
229.53	391.75
229.56	391.8
229.59	391.85
229.63	391.9
229.66	391.95
229.69	392
229.73	392.03
229.76	392.05
229.79	392.08
229.83	392.11
229.86	392.14
229.9	392.19
229.93	392.23
229.96	392.29
229.99	392.34
230.03	392.38
230.06	392.43
230.09	392.47
230.13	392.51
230.16	392.54
230.2	392.57
230.23	392.58
230.26	392.6
230.3	392.63
230.33	392.67
230.36	392.69
230.4	392.69
230.43	392.68
230.46	392.69
230.5	392.72
230.53	392.75
230.56	392.77
230.6	392.78
230.63	392.8
230.66	392.84
230.7	392.9
230.73	392.94
230.76	392.93
230.8	392.92
230.83	392.91
230.86	392.91
230.9	392.91
230.93	392.92
230.96	393
231	393.09
231.03	393.14
231.06	393.16
231.1	393.17
231.13	393.18
231.16	393.21
231.2	393.25
231.23	393.29
231.26	393.32
231.3	393.35
231.33	393.38
231.36	393.42
231.4	393.44
231.43	393.45
231.46	393.46
231.5	393.47
231.53	393.48
231.56	393.5
231.6	393.53
231.63	393.57
231.66	393.6
231.7	393.63
231.73	393.66
231.76	393.69
231.8	393.74
231.83	393.79
231.87	393.82
231.9	393.84
231.93	393.84
231.96	393.8
232	393.79
232.03	393.85
232.06	393.91
232.1	393.96
232.13	393.99
232.16	394.01
232.2	394.03
232.23	394.06
232.26	394.08
232.3	394.09
232.33	394.1
232.37	394.11
232.4	394.14
232.43	394.17
232.46	394.21
232.5	394.26
232.53	394.32
232.56	394.37
232.6	394.41
232.63	394.4
232.66	394.37
232.7	394.35
232.73	394.37
232.77	394.4
232.8	394.44
232.83	394.47
232.87	394.52
232.9	394.57
232.93	394.61
232.97	394.65
233	394.68
233.03	394.71
233.07	394.74
233.1	394.78
233.13	394.81
233.17	394.85
233.2	394.89
233.23	394.91
233.26	394.93
233.3	394.95
233.33	394.98
233.37	395
233.4	395.02
233.43	395.02
233.47	394.99
233.5	394.97
233.53	394.98
233.57	395.01
233.6	395.06
233.63	395.11
233.67	395.15
233.7	395.16
233.74	395.17
233.77	395.2
233.8	395.25
233.83	395.3
233.87	395.35
233.9	395.4
233.93	395.45
233.96	395.47
234	395.49
234.03	395.5
234.07	395.51
234.1	395.54
234.13	395.59
234.17	395.64
234.2	395.68
234.23	395.69
234.27	395.67
234.3	395.65
234.33	395.68
234.37	395.73
234.4	395.79
234.43	395.85
234.47	395.9
234.5	395.94
234.53	395.98
234.57	396.03
234.6	396.07
234.63	396.12
234.67	396.15
234.7	396.15
234.73	396.11
234.77	396.05
234.8	395.97
234.84	395.89
234.87	395.84
234.9	395.83
234.93	395.84
234.97	395.84
235	395.81
235.03	395.77
235.07	395.73
235.1	395.73
235.13	395.76
235.17	395.8
235.2	395.84
235.23	395.91
235.27	395.98
235.3	396.04
235.33	396.08
235.37	396.13
235.4	396.18
235.43	396.23
235.47	396.28
235.5	396.33
235.53	396.39
235.57	396.45
235.6	396.52
235.63	396.6
235.67	396.69
235.7	396.75
235.73	396.77
235.77	396.76
235.8	396.75
235.83	396.77
235.87	396.8
235.9	396.82
235.93	396.84
235.97	396.87
236	396.91
236.03	396.96
236.07	397
236.1	397.03
236.13	397.07
236.17	397.1
236.2	397.13
236.23	397.17
236.27	397.21
236.3	397.26
236.34	397.3
236.37	397.34
236.4	397.38
236.43	397.41
236.47	397.46
236.5	397.52
236.53	397.57
236.57	397.62
236.6	397.67
236.64	397.72
236.67	397.78
236.7	397.85
236.73	397.92
236.77	397.98
236.8	398.04
236.83	398.09
236.87	398.16
236.9	398.24
236.94	398.29
236.97	398.33
237	398.36
237.03	398.4
237.07	398.45
237.1	398.49
237.14	398.53
237.17	398.55
237.2	398.48
237.24	398.28
237.27	398.08
237.3	397.97
237.34	397.93
237.37	397.97
237.4	398.02
237.44	398.06
237.47	398.08
237.5	398.1
237.54	398.12
237.57	398.17
237.6	398.22
237.64	398.28
237.67	398.33
237.7	398.35
237.74	398.35
237.77	398.37
237.8	398.4
237.84	398.45
237.87	398.49
237.9	398.53
237.94	398.58
237.97	398.63
238	398.68
238.04	398.73
238.07	398.79
238.1	398.85
238.14	398.91
238.17	398.96
238.21	399
238.24	399.04
238.27	399.1
238.3	399.18
238.34	399.26
238.37	399.33
238.4	399.38
238.44	399.42
238.47	399.46
238.5	399.51
238.54	399.56
238.57	399.61
238.6	399.66
238.64	399.68
238.67	399.68
238.7	399.59
238.74	399.49
238.77	399.44
238.8	399.45
238.84	399.47
238.87	399.49
238.9	399.52
238.94	399.55
238.97	399.55
239	399.54
239.04	399.53
239.07	399.54
239.1	399.58
239.14	399.63
239.17	399.68
239.21	399.73
239.24	399.76
239.27	399.79
239.3	399.83
239.34	399.89
239.37	399.96
239.4	400.03
239.44	400.1
239.47	400.17
239.51	400.23
239.54	400.3
239.57	400.37
239.6	400.45
239.64	400.52
239.67	400.59
239.7	400.64
239.74	400.67
239.77	400.71
239.8	400.73
239.84	400.73
239.87	400.72
239.91	400.73
239.94	400.78
239.97	400.84
240	400.88
240.04	400.89
240.07	400.86
240.1	400.85
240.14	400.87
240.17	400.91
240.2	400.94
240.24	400.98
240.27	401
240.31	401.03
240.34	401.07
240.37	401.12
240.41	401.18
240.44	401.23
240.47	401.27
240.51	401.31
240.54	401.36
240.57	401.39
240.61	401.42
240.64	401.43
240.67	401.44
240.71	401.45
240.74	401.47
240.77	401.49
240.81	401.51
240.84	401.53
240.87	401.53
240.91	401.51
240.94	401.44
240.97	401.35
241.01	401.3
241.04	401.28
241.07	401.27
241.11	401.23
241.14	401.2
241.17	401.19
241.21	401.2
241.24	401.22
241.27	401.25
241.3	401.27
241.34	401.32
241.37	401.4
241.41	401.47
241.44	401.54
241.47	401.62
241.51	401.69
241.54	401.78
241.57	401.87
241.61	401.92
241.64	401.95
241.67	401.98
241.71	402.02
241.74	402.07
241.77	402.13
241.81	402.17
241.84	402.16
241.87	402.15
241.91	402.16
241.94	402.18
241.97	402.22
242.01	402.25
242.04	402.28
242.08	402.31
242.11	402.34
242.14	402.38
242.18	402.44
242.21	402.5
242.24	402.54
242.27	402.57
242.31	402.59
242.34	402.62
242.38	402.66
242.41	402.69
242.44	402.73
242.47	402.76
242.51	402.81
242.54	402.85
242.57	402.9
242.61	402.9
242.64	402.83
242.67	402.76
242.71	402.73
242.74	402.76
242.78	402.79
242.81	402.79
242.84	402.78
242.87	402.79
242.91	402.82
242.94	402.85
242.97	402.88
243.01	402.91
243.04	402.95
243.07	403
243.11	403.06
243.14	403.12
243.18	403.17
243.21	403.21
243.24	403.25
243.27	403.31
243.31	403.39
243.34	403.48
243.37	403.57
243.41	403.65
243.44	403.69
243.48	403.73
243.51	403.76
243.54	403.78
243.57	403.79
243.61	403.8
243.64	403.83
243.67	403.88
243.71	403.92
243.74	403.97
243.78	404.01
243.81	404.05
243.84	404.09
243.88	404.14
243.91	404.19
243.94	404.26
243.98	404.31
244.01	404.34
244.04	404.35
244.07	404.38
244.11	404.41
244.14	404.46
244.18	404.53
244.21	404.65
244.24	404.79
244.28	404.88
244.31	404.93
244.34	404.96
244.37	404.99
244.41	405.03
244.44	405.09
244.48	405.15
244.51	405.23
244.54	405.33
244.57	405.42
244.61	405.49
244.64	405.55
244.67	405.61
244.71	405.67
244.74	405.74
244.77	405.81
244.81	405.87
244.84	405.92
244.88	405.98
244.91	406.03
244.94	406.09
244.97	406.16
245.01	406.23
245.04	406.31
245.08	406.37
245.11	406.39
245.14	406.32
245.18	406.17
245.21	406.03
245.24	405.92
245.28	405.86
245.31	405.84
245.34	405.87
245.38	405.93
245.41	405.98
245.44	406.02
245.48	406.05
245.51	406.06
245.54	406.08
245.58	406.13
245.61	406.19
245.64	406.25
245.68	406.33
245.71	406.41
245.74	406.5
245.78	406.57
245.81	406.59
245.84	406.6
245.88	406.65
245.91	406.7
245.94	406.76
245.98	406.81
246.01	406.85
246.04	406.87
246.08	406.9
246.11	406.95
246.14	407.01
246.18	407.09
246.21	407.16
246.24	407.2
246.28	407.24
246.31	407.28
246.34	407.32
246.38	407.37
246.41	407.4
246.44	407.42
246.48	407.45
246.51	407.49
246.54	407.54
246.58	407.58
246.61	407.63
246.64	407.68
246.68	407.74
246.71	407.8
246.74	407.84
246.78	407.87
246.81	407.9
246.84	407.93
246.88	407.96
246.91	407.95
246.94	407.88
246.98	407.85
247.01	407.89
247.04	407.94
247.08	408.01
247.11	408.06
247.14	408.1
247.18	408.14
247.21	408.2
247.25	408.26
247.28	408.34
247.31	408.41
247.34	408.51
247.38	408.61
247.41	408.68
247.44	408.72
247.48	408.77
247.51	408.81
247.55	408.84
247.58	408.84
247.61	408.82
247.64	408.81
247.68	408.82
247.71	408.84
247.74	408.87
247.78	408.91
247.81	408.95
247.84	408.99
247.88	409.02
247.91	409.07
247.95	409.11
247.98	409.14
248.01	409.15
248.04	409.12
248.08	409.11
248.11	409.17
248.14	409.24
248.18	409.3
248.21	409.34
248.25	409.35
248.28	409.35
248.31	409.4
248.35	409.45
248.38	409.5
248.41	409.56
248.44	409.64
248.48	409.71
248.51	409.75
248.54	409.78
248.58	409.81
248.61	409.86
248.64	409.97
248.68	410.11
248.71	410.2
248.74	410.24
248.78	410.28
248.81	410.32
248.85	410.36
248.88	410.4
248.91	410.46
248.95	410.52
248.98	410.58
249.01	410.62
249.04	410.66
249.08	410.69
249.11	410.72
249.15	410.76
249.18	410.81
249.21	410.86
249.24	410.9
249.28	410.95
249.31	411
249.34	411.05
249.38	411.09
249.41	411.15
249.45	411.23
249.48	411.33
249.51	411.43
249.55	411.47
249.58	411.42
249.61	411.32
249.65	411.29
249.68	411.34
249.71	411.4
249.75	411.46
249.78	411.52
249.81	411.57
249.84	411.63
249.88	411.69
249.91	411.74
249.95	411.77
249.98	411.79
250.01	411.82
250.05	411.85
250.08	411.88
250.11	411.89
250.15	411.91
250.18	411.94
250.21	411.97
250.25	412.01
250.28	412.03
250.31	412.03
250.35	412.03
250.38	412.06
250.41	412.09
250.45	412.14
250.48	412.18
250.51	412.23
250.55	412.27
250.58	412.3
250.61	412.34
250.65	412.37
250.68	412.4
250.71	412.43
250.75	412.48
250.78	412.57
250.81	412.66
250.85	412.71
250.88	412.76
250.91	412.8
250.95	412.86
250.98	412.93
251.01	413
251.05	413.05
251.08	413.09
251.11	413.13
251.15	413.16
251.18	413.19
251.21	413.17
251.25	413.13
251.28	413.13
251.31	413.17
251.35	413.22
251.38	413.28
251.41	413.35
251.45	413.41
251.48	413.44
251.51	413.44
251.55	413.47
251.58	413.54
251.61	413.64
251.65	413.73
251.68	413.81
251.71	413.89
251.75	413.97
251.78	414.04
251.81	414.1
251.85	414.15
251.88	414.19
251.91	414.22
251.95	414.24
251.98	414.27
252.01	414.31
252.05	414.36
252.08	414.4
252.11	414.44
252.15	414.48
252.18	414.54
252.21	414.59
252.25	414.64
252.28	414.68
252.31	414.74
252.35	414.81
252.38	414.89
252.42	414.95
252.45	415
252.48	415.06
252.51	415.12
252.55	415.17
252.58	415.23
252.61	415.28
252.65	415.33
252.68	415.39
252.71	415.43
252.75	415.46
252.78	415.48
252.82	415.52
252.85	415.58
252.88	415.65
252.92	415.7
252.95	415.75
252.98	415.79
253.01	415.83
253.05	415.88
253.08	415.93
253.11	415.97
253.15	416.01
253.18	416.04
253.22	416.07
253.25	416.1
253.28	416.13
253.32	416.18
253.35	416.22
253.38	416.27
253.42	416.33
253.45	416.47
253.48	416.69
253.51	416.86
253.55	416.94
253.58	416.97
253.62	417
253.65	417.04
253.68	417.08
253.72	417.13
253.75	417.23
253.78	417.35
253.82	417.43
253.85	417.53
253.88	417.62
253.91	417.69
253.95	417.76
253.98	417.82
254.02	417.87
254.05	417.92
254.08	417.97
254.12	418.02
254.15	418.09
254.18	418.16
254.22	418.24
254.25	418.3
254.28	418.35
254.32	418.38
254.35	418.43
254.38	418.49
254.42	418.57
254.45	418.65
254.48	418.71
254.52	418.75
254.55	418.79
254.58	418.85
254.62	418.92
254.65	418.92
254.68	418.84
254.72	418.82
254.75	418.85
254.78	418.86
254.82	418.89
254.85	418.97
254.88	419.05
254.91	419.14
254.95	419.21
254.98	419.28
255.02	419.34
255.05	419.4
255.08	419.47
255.12	419.55
255.15	419.65
255.18	419.75
255.22	419.84
255.25	419.92
255.28	419.99
255.32	420.05
255.35	420.11
255.38	420.16
255.42	420.22
255.45	420.28
255.48	420.34
255.52	420.4
255.55	420.47
255.58	420.55
255.62	420.62
255.65	420.7
255.68	420.76
255.72	420.82
255.75	420.87
255.79	420.91
255.82	420.93
255.85	420.97
255.89	421.05
255.92	421.12
255.95	421.19
255.98	421.24
256.02	421.29
256.05	421.35
256.08	421.41
256.12	421.46
256.15	421.5
256.18	421.52
256.22	421.54
256.25	421.58
256.28	421.64
256.32	421.69
256.35	421.74
256.39	421.78
256.42	421.82
256.45	421.86
256.49	421.91
256.52	421.96
256.55	422.02
256.58	422.1
256.62	422.18
256.65	422.25
256.69	422.32
256.72	422.38
256.75	422.44
256.79	422.5
256.82	422.57
256.85	422.65
256.88	422.74
256.92	422.83
256.95	422.9
256.98	422.97
257.02	423.02
257.05	423.06
257.08	423.1
257.12	423.14
257.15	423.16
257.19	423.16
257.22	423.18
257.25	423.23
257.29	423.29
257.32	423.35
257.35	423.41
257.38	423.47
257.42	423.54
257.45	423.61
257.49	423.67
257.52	423.72
257.55	423.75
257.59	423.8
257.62	423.86
257.65	423.92
257.69	424
257.72	424.07
257.75	424.13
257.79	424.21
257.82	424.27
257.85	424.33
257.89	424.39
257.92	424.44
257.95	424.51
257.99	424.59
258.02	424.67
258.05	424.73
258.09	424.79
258.12	424.85
258.15	424.95
258.19	425.04
258.22	425.1
258.25	425.14
258.29	425.17
258.32	425.17
258.35	425.12
258.39	425.07
258.42	425.11
258.45	425.2
258.49	425.28
258.52	425.34
258.55	425.38
258.59	425.43
258.62	425.49
258.65	425.55
258.69	425.63
258.72	425.69
258.75	425.76
258.79	425.84
258.82	425.93
258.85	426.01
258.89	426.07
258.92	426.12
258.95	426.19
258.99	426.28
259.02	426.4
259.05	426.52
259.09	426.63
259.12	426.73
259.15	426.82
259.19	426.89
259.22	426.94
259.25	426.98
259.29	427.04
259.32	427.09
259.35	427.14
259.39	427.19
259.42	427.24
259.45	427.29
259.49	427.36
259.52	427.45
259.55	427.53
259.59	427.59
259.62	427.65
259.66	427.7
259.69	427.76
259.72	427.83
259.76	427.93
259.79	428.06
259.82	428.15
259.85	428.23
259.89	428.31
259.92	428.38
259.96	428.44
259.99	428.5
260.02	428.58
260.06	428.75
260.09	428.98
260.12	429.15
260.15	429.25
260.19	429.32
260.22	429.39
260.25	429.45
260.29	429.5
260.32	429.56
260.36	429.63
260.39	429.71
260.42	429.78
260.46	429.85
260.49	429.9
260.52	429.93
260.56	429.95
260.59	430
260.62	430.07
260.66	430.13
260.69	430.18
260.72	430.23
260.75	430.29
260.79	430.35
260.82	430.42
260.86	430.48
260.89	430.52
260.92	430.53
260.96	430.55
260.99	430.61
261.02	430.7
261.06	430.78
261.09	430.86
261.12	430.92
261.16	430.97
261.19	431.02
261.22	431.09
261.26	431.18
261.29	431.26
261.32	431.34
261.36	431.41
261.39	431.48
261.42	431.54
261.46	431.62
261.49	431.69
261.52	431.76
261.56	431.78
261.59	431.8
261.62	431.87
261.66	431.96
261.69	432.06
261.72	432.16
261.76	432.26
261.79	432.36
261.82	432.47
261.86	432.56
261.89	432.64
261.92	432.74
261.96	432.83
261.99	432.93
262.02	433.02
262.06	433.09
262.09	433.12
262.12	433.2
262.16	433.31
262.19	433.42
262.22	433.52
262.26	433.62
262.29	433.71
262.32	433.82
262.36	433.96
262.39	434.12
262.42	434.26
262.46	434.36
262.49	434.45
262.52	434.55
262.56	434.7
262.59	434.91
262.62	435.16
262.66	435.36
262.69	435.47
262.72	435.55
262.76	435.62
262.79	435.67
262.82	435.69
262.86	435.71
262.89	435.75
262.93	435.81
262.96	435.88
262.99	435.96
263.03	436.03
263.06	436.08
263.09	436.12
263.12	436.18
263.16	436.26
263.19	436.33
263.23	436.39
263.26	436.43
263.29	436.47
263.33	436.53
263.36	436.62
263.39	436.73
263.43	436.85
263.46	436.94
263.49	437.01
263.52	437.07
263.56	437.13
263.59	437.2
263.63	437.28
263.66	437.37
263.69	437.45
263.72	437.53
263.76	437.6
263.79	437.66
263.83	437.69
263.86	437.71
263.89	437.77
263.93	437.85
263.96	437.93
263.99	438
264.03	438.06
264.06	438.1
264.09	438.14
264.13	438.22
264.16	438.3
264.19	438.39
264.23	438.48
264.26	438.56
264.29	438.63
264.33	438.7
264.36	438.76
264.39	438.82
264.43	438.88
264.46	438.93
264.49	438.99
264.53	439.06
264.56	439.13
264.59	439.19
264.63	439.25
264.66	439.31
264.69	439.37
264.73	439.44
264.76	439.52
264.79	439.6
264.83	439.65
264.86	439.72
264.89	439.82
264.93	439.97
264.96	440.14
264.99	440.27
265.03	440.36
265.06	440.44
265.1	440.54
265.13	440.7
265.16	440.97
265.19	441.24
265.23	441.41
265.26	441.51
265.3	441.62
265.33	441.8
265.36	442.14
265.4	442.48
265.43	442.73
265.46	442.87
265.49	442.94
265.53	443
265.56	443.09
265.6	443.2
265.63	443.29
265.66	443.28
265.7	443.21
265.73	443.16
265.76	443.18
265.8	443.23
265.83	443.28
265.86	443.32
265.9	443.34
265.93	443.38
265.96	443.47
266	443.59
266.03	443.72
266.06	443.83
266.1	443.96
266.13	444.09
266.16	444.17
266.2	444.22
266.23	444.27
266.26	444.31
266.3	444.31
266.33	444.34
266.36	444.42
266.4	444.53
266.43	444.63
266.46	444.73
266.49	444.83
266.53	444.96
266.56	445.08
266.6	445.18
266.63	445.27
266.66	445.35
266.7	445.41
266.73	445.47
266.76	445.55
266.8	445.68
266.83	445.81
266.86	445.9
266.9	445.94
266.93	445.89
266.96	445.81
267	445.82
267.03	445.89
267.07	445.95
267.1	446.01
267.13	446.16
267.16	446.5
267.2	446.97
267.23	447.35
267.26	447.56
267.3	447.67
267.33	447.77
267.36	447.96
267.4	448.22
267.43	448.42
267.46	448.51
267.5	448.55
267.53	448.58
267.56	448.61
267.6	448.64
267.63	448.69
267.66	448.75
267.7	448.79
267.73	448.84
267.77	448.87
267.8	448.91
267.83	448.97
267.87	449.04
267.9	449.11
267.93	449.17
267.97	449.21
268	449.24
268.03	449.29
268.07	449.34
268.1	449.38
268.13	449.38
268.17	449.35
268.2	449.35
268.23	449.39
268.27	449.46
268.3	449.53
268.33	449.58
268.37	449.65
268.4	449.73
268.43	449.81
268.47	449.9
268.5	450
268.53	450.14
268.57	450.37
268.6	450.71
268.63	451.09
268.67	451.49
268.7	451.87
268.73	452.14
268.77	452.35
268.8	452.53
268.83	452.67
268.87	452.82
268.9	452.96
268.93	453.07
268.97	453.16
269	453.23
269.03	453.3
269.07	453.4
269.1	453.54
269.13	453.65
269.17	453.73
269.2	453.8
269.24	453.87
269.27	453.95
269.3	454.02
269.33	454.07
269.37	454.12
269.4	454.16
269.44	454.21
269.47	454.26
269.5	454.32
269.54	454.39
269.57	454.46
269.6	454.53
269.64	454.57
269.67	454.6
269.7	454.61
269.74	454.61
269.77	454.63
269.8	454.67
269.84	454.71
269.87	454.74
269.9	454.76
269.94	454.77
269.97	454.8
270	454.86
270.04	454.95
270.07	455.04
270.1	455.1
270.14	455.15
270.17	455.21
270.2	455.3
270.24	455.42
270.27	455.56
270.3	455.7
270.34	455.88
270.37	456.14
270.4	456.4
270.43	456.59
270.47	456.72
270.5	456.82
270.54	456.9
270.57	456.96
270.6	457.02
270.64	457.13
270.67	457.28
270.7	457.63
270.74	458.13
270.77	458.6
270.8	459.06
270.84	459.42
270.87	459.62
270.9	459.74
270.94	459.81
270.97	459.9
271.01	460.03
271.04	460.13
271.07	460.16
271.11	460.16
271.14	460.17
271.17	460.19
271.21	460.25
271.24	460.33
271.27	460.42
271.3	460.52
271.34	460.64
271.37	460.73
271.4	460.82
271.44	460.95
271.47	461.24
271.5	461.67
271.54	462
271.57	462.25
271.61	462.5
271.64	462.77
271.67	463.13
271.71	463.54
271.74	463.94
271.77	464.47
271.81	465.07
271.84	465.59
271.87	465.92
271.91	466.1
271.94	466.26
271.97	466.37
272.01	466.44
272.04	466.5
272.07	466.56
272.11	466.66
272.14	466.81
272.18	466.99
272.21	467.15
272.24	467.33
272.28	467.53
272.31	467.77
272.34	468.12
272.38	468.51
272.41	468.83
272.44	469.07
272.48	469.23
272.51	469.37
272.54	469.56
272.58	469.83
272.61	470.11
272.64	470.42
272.68	470.87
272.71	471.27
272.75	471.54
272.78	471.84
272.81	472.17
272.85	472.6
272.88	473.13
272.91	473.53
272.95	473.68
272.98	473.7
273.01	473.7
273.05	473.75
273.08	474.02
273.11	474.57
273.15	475.09
273.18	475.32
273.21	475.37
273.25	475.41
273.28	475.46
273.31	475.5
273.35	475.53
273.38	475.56
273.41	475.64
273.45	475.77
273.48	476.01
273.51	476.39
273.55	476.82
273.58	477.31
273.62	477.77
273.65	478.17
273.68	478.68
273.72	479.34
273.75	479.92
273.78	480.33
273.82	480.57
273.85	480.71
273.88	480.8
273.92	480.91
273.95	481.12
273.98	481.41
274.02	481.73
274.05	482.14
274.08	482.6
274.12	483
274.15	483.36
274.19	483.69
274.22	484.2
274.25	485.05
274.29	485.99
274.32	486.79
274.35	487.4
274.39	487.88
274.42	488.47
274.45	489.12
274.49	489.53
274.52	489.8
274.55	490.09
274.59	490.42
274.62	490.74
274.65	490.9
274.69	490.86
274.72	490.67
274.76	490.36
274.79	489.97
274.82	489.7
274.86	489.61
274.89	489.7
274.92	490.3
274.96	491.53
274.99	492.64
275.02	493.2
275.06	493.49
275.09	493.6
275.12	493.9
275.16	494.69
275.19	495.62
275.23	496.3
275.26	496.65
275.29	496.8
275.33	496.97
275.36	497.28
275.39	497.8
275.43	498.49
275.46	499.21
275.5	500.13
275.53	501.25
275.56	502.3
275.6	503.12
275.63	503.77
275.66	504.35
275.7	504.84
275.73	505.23
275.76	505.58
275.8	506.14
275.83	506.78
275.87	507.25
275.9	507.65
275.93	508.02
275.97	508.6
276	509.63
276.03	510.54
276.07	510.96
276.1	511.04
276.14	510.94
276.17	511.2
276.2	511.86
276.24	512.8
276.27	514.05
276.3	515.03
276.34	515.55
276.37	515.76
276.41	515.65
276.44	515.71
276.47	516.53
276.5	518.02
276.54	519.82
276.57	521.16
276.61	521.87
276.64	522.77
276.68	524.04
276.71	525.36
276.74	526.26
276.78	526.6
276.81	526.71
276.84	526.84
276.88	527.02
276.91	527.81
276.95	529.09
276.98	530.35
277.01	531.53
277.05	532.36
277.08	532.84
277.12	533.15
277.15	533.44
277.18	534.05
277.22	535.1
277.25	536.25
277.29	537.63
277.32	539.26
277.35	540.53
277.39	541.53
277.42	542.56
277.46	543.32
277.49	543.71
277.52	544.59
277.56	546.02
277.59	547.93
277.63	550.22
277.66	551.75
277.69	552.48
277.73	553.48
277.76	555.07
277.8	556.73
277.83	557.73
277.86	557.9
277.9	558.44
277.93	559.98
277.97	562.16
278	563.9
278.04	564.64
278.07	565.07
278.1	566.04
278.14	567.7
278.17	569.28
278.21	570.74
278.24	572.37
278.27	573.95
278.31	575.7
278.34	577.51
278.38	579.35
278.41	581.28
278.45	582.93
278.48	583.85
278.52	584.48
278.55	585.95
278.58	588.1
278.62	590.65
278.65	593.26
278.69	595.15
278.72	595.93
278.76	596.27
278.79	597.19
278.83	599.04
278.86	601.56
278.89	604.21
278.93	606.5
278.97	608.6
279	610.92
279.04	613.02
279.07	615.07
279.1	616.95
279.14	618.95
279.17	621.58
279.21	624.18
279.24	626.73
279.28	629.02
279.31	630.81
279.35	632.63
279.38	634.88
279.42	637.57
279.45	640.42
279.49	642.86
279.52	645.2
279.56	647.84
279.6	650.56
279.63	653.27
279.66	655.58
279.7	657.83
279.74	660.7
279.77	664.25
279.81	668.14
279.84	671.6
279.88	674.85
279.91	678.45
279.95	682.24
279.98	686.05
280.02	689.68
280.05	693.52
280.09	697.61
280.13	701.17
280.16	704.28
280.2	707.44
280.23	710.94
280.27	714.96
280.31	719.08
280.34	723.19
280.38	727.44
280.41	731.75
280.45	736.04
280.49	740.4
280.52	744.73
280.56	749.16
280.59	753.89
280.63	758.28
280.67	762.2
280.71	766.18
280.74	770.06
280.78	774.32
280.81	779.48
280.85	785
280.89	790.73
280.93	796.71
280.96	802.77
281	808.6
281.04	814.73
281.07	821.14
281.11	827.23
281.15	833.06
281.19	838.7
281.22	844.07
281.26	849.9
281.3	856.52
281.33	863.27
281.37	870.07
281.41	877.18
281.45	884.68
281.49	892.31
281.52	900.07
281.56	907.89
281.6	915.74
281.64	924.08
281.68	932.44
281.71	940.99
281.75	950.35
281.79	959.63
281.83	968.73
281.87	977.74
281.9	986.04
281.94	994.29
281.98	1002.89
282.02	1011.49
282.06	1019.81
282.1	1028.55
282.14	1037.43
282.17	1047.03
282.21	1058.15
282.25	1069.26
282.29	1079.98
282.33	1090.87
282.37	1101.91
282.41	1113.24
282.45	1124.55
282.49	1135.69
282.52	1146.89
282.56	1158.11
282.6	1169.9
282.64	1182.36
282.68	1195.05
282.72	1207.66
282.76	1220.16
282.8	1232.81
282.84	1245.67
282.87	1258
282.91	1269.73
282.95	1281.53
282.99	1293.8
283.03	1307.27
283.07	1322.17
283.11	1337.51
283.15	1352.53
283.18	1367.72
283.22	1383.14
283.26	1398
283.3	1412.18
283.34	1425.71
283.38	1438.49
283.41	1450.35
283.45	1462.73
283.49	1478.75
283.53	1499.54
283.56	1520.82
283.6	1536.85
283.64	1546.58
283.67	1552.07
283.71	1557.99
283.75	1566.57
283.79	1575.61
283.82	1583.69
283.86	1590.98
283.9	1598.49
283.93	1606.85
283.97	1616.31
284.01	1626.79
284.04	1637.63
284.08	1648.16
284.11	1657.55
284.15	1665.08
284.18	1671.64
284.22	1678.5
284.26	1686.01
284.29	1694.14
284.33	1701.9
284.36	1709.31
284.4	1716.98
284.43	1724.94
284.47	1733.6
284.5	1742.95
284.54	1751.99
284.57	1760.27
284.61	1767.9
284.65	1774.43
284.68	1780.51
284.71	1787.01
284.75	1793.53
284.78	1800.39
284.82	1807.79
284.85	1814.5
284.88	1819.88
284.92	1823.66
284.95	1826.85
284.99	1830.9
285.02	1836.01
285.05	1841.3
285.09	1844.58
285.12	1845.37
285.15	1844.98
285.19	1843.96
285.22	1843.11
285.25	1842.41
285.28	1841.31
285.32	1840.75
285.35	1841.21
285.38	1842.95
285.42	1845.54
285.45	1848.59
285.48	1851.83
285.51	1855.26
285.55	1858.4
285.58	1859.53
285.61	1858.9
285.64	1857.57
285.67	1856.09
285.71	1855.35
285.74	1855.26
285.77	1855.02
285.8	1854.44
285.83	1853.57
285.86	1852.36
285.9	1850.55
285.93	1847.69
285.96	1843.85
285.99	1839.35
286.02	1834.96
286.06	1831.26
286.09	1828.05
286.12	1825.16
286.15	1822.21
286.18	1818.87
286.22	1815.25
286.25	1811.25
286.28	1806.61
286.31	1801.97
286.34	1798.09
286.38	1795.73
286.41	1795.43
286.44	1796.31
286.47	1797.28
286.5	1797.56
286.53	1796.32
286.56	1793.61
286.6	1789.56
286.63	1784.71
286.66	1780.19
286.69	1776.65
286.72	1773.75
286.75	1770.91
286.79	1767.61
286.82	1763.38
286.85	1758.83
286.88	1754.53
286.91	1749.94
286.94	1744.48
286.97	1737.86
287.01	1730.99
287.04	1725.06
287.07	1720.24
287.1	1716.45
287.13	1712.87
287.16	1708.72
287.2	1704.79
287.23	1702.16
287.26	1701.03
287.29	1700.56
287.32	1700.02
287.35	1698.64
287.39	1695.46
287.42	1690.52
287.45	1684.67
287.48	1678.64
287.51	1673.54
287.54	1669.82
287.57	1665.94
287.61	1660.52
287.64	1653.18
287.67	1644.92
287.7	1637.25
287.73	1631.09
287.76	1626.34
287.8	1622.9
287.83	1620.66
287.86	1619.04
287.89	1617.55
287.92	1615.82
287.95	1614.06
287.99	1612.61
288.02	1611.85
288.05	1611.6
288.08	1611.93
288.12	1613.41
288.15	1615.71
288.18	1618.92
288.21	1622.32
288.24	1624.5
288.27	1625.07
288.3	1623.37
288.33	1619.35
288.36	1614.24
288.39	1608.38
288.42	1601.33
288.45	1593.44
288.49	1585.11
288.52	1577.48
288.55	1571.81
288.58	1567.99
288.61	1565.16
288.64	1562.27
288.67	1558.74
288.7	1554.38
288.73	1549.51
288.76	1544.96
288.79	1540.58
288.82	1535.64
288.85	1529.57
288.88	1521.95
288.91	1513.41
288.94	1505.4
288.97	1498.66
289	1492.83
289.03	1487.11
289.06	1480.57
289.09	1472.9
289.12	1464.82
289.15	1457.72
289.18	1452.29
289.21	1447.83
289.24	1443.51
289.27	1438.38
289.3	1432.69
289.33	1427.25
289.36	1422.03
289.39	1417.08
289.42	1412.09
289.45	1406.3
289.48	1399.2
289.51	1391.26
289.54	1383.19
289.57	1375.3
289.6	1367.74
289.63	1359.62
289.66	1349.94
289.69	1339.71
289.72	1330.05
289.75	1321.45
289.78	1314.34
289.81	1307.93
289.84	1301.34
289.87	1294.19
289.9	1286.32
289.93	1277.47
289.96	1268.16
289.99	1258.99
290.02	1250.51
290.05	1243.03
290.08	1236.13
290.11	1229.77
290.14	1223.96
290.17	1218.49
290.2	1213.07
290.23	1206.63
290.26	1198.83
290.29	1190.38
290.32	1181.66
290.35	1173.12
290.38	1165.72
290.41	1159.04
290.44	1152.11
290.47	1144.67
290.5	1137.14
290.53	1129.96
290.56	1123.12
290.59	1117.13
290.62	1111.08
290.65	1104.09
290.68	1096.57
290.71	1088.07
290.74	1078.45
290.77	1068.85
290.8	1059.23
290.83	1049.6
290.86	1039.95
290.89	1029.59
290.92	1019.23
290.95	1009.61
290.98	1001.13
291.02	994.74
291.05	990
291.08	985.03
291.11	979.63
291.14	974.28
291.17	968.54
291.2	962.94
291.23	957.48
291.26	951.79
291.29	946.29
291.32	941.4
291.36	937.56
291.39	934.74
291.42	932.03
291.45	928.88
291.48	924.57
291.51	919.4
291.54	914.12
291.57	908.45
291.6	902.79
291.63	897.03
291.66	890.47
291.7	883.29
291.73	875.66
291.76	868.28
291.79	861.83
291.82	856.61
291.85	852.24
291.88	847.04
291.91	840.84
291.94	834.72
291.98	829.14
292.01	824.8
292.04	821.48
292.07	817.37
292.1	811.9
292.13	805.79
292.16	799.51
292.19	793.61
292.23	788.56
292.26	783.96
292.29	779.46
292.32	774.88
292.35	769.95
292.38	765
292.41	760.53
292.45	756.04
292.48	751.04
292.51	745.49
292.54	739.31
292.57	732.91
292.6	727.24
292.64	722.68
292.67	718.95
292.7	715.75
292.73	712.2
292.76	707.95
292.8	703.91
292.83	700.6
292.86	697.67
292.89	694.82
292.92	692.12
292.96	689.27
292.99	685.61
293.02	681.43
293.05	676.9
293.08	673.09
293.11	670.78
293.15	668.79
293.18	666.55
293.21	663.63
293.24	660.25
293.28	657.3
293.31	654.55
293.34	651.82
293.37	648.98
293.4	645.97
293.44	643.5
293.47	641.52
293.5	639.49
293.53	637.02
293.57	633.59
293.6	629.69
293.63	626.11
293.66	623.4
293.7	620.99
293.73	618.55
293.76	616.28
293.79	613.72
293.83	611.19
293.86	608.99
293.89	606.71
293.92	604.62
293.96	603.24
293.99	601.9
294.02	600.2
294.05	598.09
294.08	595.64
294.12	593.28
294.15	590.65
294.18	588.04
294.22	585.92
294.25	584.31
294.28	583.33
294.31	581.93
294.35	579.8
294.38	577.95
294.41	576.89
294.44	576.31
294.48	575.86
294.51	574.91
294.54	573.04
294.57	570.33
294.6	567.75
294.64	566.18
294.67	565.07
294.7	563.91
294.73	561.55
294.77	557.65
294.8	553.73
294.83	550.95
294.86	549.35
294.9	547.94
294.93	545.94
294.96	543.77
295	541.78
295.03	540.29
295.06	539.26
295.09	537.37
295.12	534.69
295.16	531.82
295.19	528.95
295.22	526.63
295.26	524.79
295.29	522.96
295.32	520.76
295.35	518.2
295.39	516.16
295.42	514.41
295.45	512.57
295.49	511.02
295.52	509.22
295.55	507.7
295.58	506.84
295.62	506.09
295.65	505.34
295.68	504.69
295.72	503.64
295.75	502.22
295.78	501.21
295.81	500.44
295.85	499.93
295.88	499.49
295.91	498.02
295.95	495.41
295.98	492.77
296.01	491.06
296.04	490.24
296.08	489.76
296.11	489.1
296.14	488.03
296.18	486.74
296.21	485.25
296.24	484.01
296.28	483.57
296.31	483.45
296.34	483.25
296.38	482.95
296.41	481.94
296.44	480.23
296.47	478.93
296.51	478.07
296.54	477.42
296.58	477.01
296.61	476.28
296.64	475.02
296.67	473.73
296.71	472.88
296.74	472.53
296.77	472.3
296.81	471.9
296.84	471.3
296.87	470.53
296.91	469.82
296.94	469.34
296.97	468.99
297	468.72
297.04	468.44
297.07	467.96
297.1	467.2
297.14	466.39
297.17	465.63
297.2	464.92
297.24	464.28
297.27	463.61
297.3	462.79
297.33	461.99
297.37	461.32
297.4	460.77
297.43	460.43
297.47	460.26
297.5	460.04
297.53	459.73
297.57	459.4
297.6	458.99
297.63	458.64
297.67	458.36
297.7	457.98
297.73	457.58
297.77	457.25
297.8	456.92
297.83	456.56
297.87	456.15
297.9	455.65
297.93	455.22
297.96	454.93
298	454.72
298.03	454.6
298.07	454.52
298.1	454.37
298.13	454
298.17	453.3
298.2	452.44
298.23	451.68
298.26	451.07
298.3	450.44
298.33	449.73
298.36	449.12
298.4	448.55
298.43	447.89
298.46	447.23
298.5	446.67
298.53	446.27
298.56	445.97
298.59	445.59
298.63	444.93
298.66	444.23
298.69	443.7
298.73	443.27
298.76	442.85
298.79	442.19
298.83	441.09
298.86	439.96
298.89	439.28
298.93	438.9
298.96	438.6
298.99	438.27
299.02	437.81
299.06	437.38
299.09	437.12
299.13	436.95
299.16	436.86
299.19	436.81
299.22	436.77
299.26	436.73
299.29	436.65
299.32	436.52
299.36	436.37
299.39	436.21
299.42	436.09
299.46	436.01
299.49	435.94
299.52	435.87
299.56	435.79
299.59	435.69
299.62	435.56
299.66	435.46
299.69	435.41
299.72	435.36
299.75	435.32
299.79	435.26
299.82	435.13
299.85	435
299.89	434.73
299.92	434.26
299.96	433.8
299.99	433.28
300.02	432.58
300.06	431.65
300.09	430.67
300.12	429.98
300.15	429.6
300.19	429.28
300.22	428.89
300.26	428.4
300.29	427.8
300.32	427.27
300.36	426.97
300.39	426.78
300.42	426.62
300.45	426.41
300.49	426.16
300.52	425.85
300.55	425.46
300.59	425.15
300.62	424.93
300.65	424.81
300.69	424.79
300.72	424.77
300.75	424.73
300.79	424.63
300.82	424.44
300.85	424.22
300.89	424.03
300.92	423.92
300.95	423.84
300.98	423.66
301.02	423.39
301.05	423.12
301.08	422.95
301.12	422.89
301.15	422.83
301.18	422.73
301.22	422.57
301.25	422.39
301.29	422.19
301.32	421.98
301.35	421.78
301.39	421.63
301.42	421.49
301.45	421.37
301.49	421.25
301.52	421.14
301.55	421.03
301.58	420.89
301.62	420.68
301.65	420.41
301.68	420.14
301.72	419.97
301.75	419.89
301.78	419.82
301.82	419.77
301.85	419.69
301.88	419.61
301.92	419.57
301.95	419.52
301.98	419.4
302.02	419.27
302.05	419.18
302.08	419.12
302.12	419.08
302.15	419.04
302.18	418.98
302.22	418.91
302.25	418.81
302.28	418.72
302.32	418.68
302.35	418.66
302.38	418.65
302.42	418.63
302.45	418.61
302.48	418.56
302.52	418.45
302.55	418.31
302.58	418.22
302.62	418.19
302.65	418.17
302.68	418.16
302.71	418.13
302.75	418.1
302.78	418.05
302.82	417.98
302.85	417.91
302.88	417.87
302.91	417.85
302.95	417.84
302.98	417.82
303.01	417.69
303.05	417.39
303.08	417.09
303.12	416.9
303.15	416.79
303.18	416.73
303.21	416.69
303.25	416.66
303.28	416.64
303.31	416.61
303.35	416.57
303.38	416.48
303.41	416.34
303.45	416.24
303.48	416.21
303.52	416.18
303.55	416.14
303.58	416.09
303.62	416
303.65	415.92
303.68	415.87
303.71	415.85
303.75	415.82
303.78	415.78
303.81	415.73
303.85	415.63
303.88	415.53
303.91	415.46
303.95	415.41
303.98	415.36
304.02	415.3
304.05	415.25
304.08	415.2
304.11	415.15
304.15	415.09
304.18	415.03
304.21	414.97
304.25	414.92
304.28	414.87
304.31	414.84
304.35	414.82
304.38	414.79
304.41	414.75
304.45	414.68
304.48	414.56
304.51	414.47
304.55	414.39
304.58	414.32
304.61	414.27
304.65	414.25
304.68	414.23
304.71	414.23
304.75	414.21
304.78	414.18
304.81	414.14
304.85	414.06
304.88	413.99
304.91	413.97
304.95	413.96
304.98	413.95
305.01	413.93
305.05	413.91
305.08	413.9
305.11	413.89
305.15	413.87
305.18	413.83
305.21	413.75
305.25	413.67
305.28	413.63
305.31	413.62
305.35	413.62
305.38	413.57
305.41	413.44
305.45	413.29
305.48	413.18
305.51	413.14
305.54	413.13
305.58	413.12
305.61	413.1
305.64	413.07
305.68	413.03
305.71	413
305.74	412.96
305.78	412.92
305.81	412.89
305.85	412.84
305.88	412.78
305.91	412.73
305.94	412.7
305.98	412.69
306.01	412.67
306.04	412.65
306.08	412.62
306.11	412.6
306.14	412.57
306.18	412.53
306.21	412.49
306.25	412.46
306.28	412.44
306.31	412.44
306.34	412.45
306.38	412.44
306.41	412.43
306.44	412.43
306.48	412.43
306.51	412.42
306.54	412.4
306.58	412.38
306.61	412.35
306.64	412.33
306.68	412.3
306.71	412.23
306.74	412.11
306.78	412.01
306.81	411.94
306.84	411.89
306.88	411.85
306.91	411.83
306.94	411.83
306.98	411.82
307.01	411.82
307.04	411.81
307.08	411.79
307.11	411.77
307.14	411.77
307.18	411.77
307.21	411.77
307.24	411.76
307.28	411.74
307.31	411.72
307.34	411.7
307.38	411.68
307.41	411.66
307.44	411.64
307.48	411.59
307.51	411.54
307.54	411.51
307.58	411.49
307.61	411.45
307.64	411.41
307.68	411.35
307.71	411.27
307.74	411.21
307.78	411.18
307.81	411.17
307.84	411.16
307.88	411.17
307.91	411.19
307.94	411.22
307.98	411.23
308.01	411.23
308.04	411.22
308.08	411.21
308.11	411.21
308.14	411.21
308.18	411.22
308.21	411.22
308.24	411.21
308.28	411.19
308.31	411.16
308.34	411.11
308.38	411.06
308.41	411.01
308.44	411
308.48	411.01
308.51	411.01
308.54	411
308.58	410.93
308.61	410.84
308.64	410.75
308.68	410.7
308.71	410.69
308.74	410.71
308.78	410.73
308.81	410.74
308.84	410.74
308.88	410.74
308.91	410.74
308.94	410.75
308.97	410.75
309.01	410.75
309.04	410.76
309.07	410.76
309.11	410.74
309.14	410.67
309.17	410.57
309.21	410.51
309.24	410.48
309.28	410.46
309.31	410.44
309.34	410.42
309.38	410.4
309.41	410.38
309.44	410.36
309.48	410.35
309.51	410.33
309.54	410.32
309.58	410.3
309.61	410.29
309.64	410.28
309.68	410.29
309.71	410.3
309.74	410.32
309.78	410.33
309.81	410.33
309.84	410.33
309.87	410.33
309.91	410.33
309.94	410.34
309.97	410.33
310.01	410.33
310.04	410.33
310.08	410.35
310.11	410.37
310.14	410.36
310.18	410.32
310.21	410.28
310.24	410.25
310.27	410.24
310.31	410.24
310.34	410.23
310.37	410.21
310.41	410.15
310.44	410.05
310.47	409.98
310.51	409.92
310.54	409.86
310.57	409.78
310.61	409.74
310.64	409.71
310.68	409.68
310.71	409.65
310.74	409.65
310.77	409.67
310.81	409.7
310.84	409.72
310.87	409.73
310.91	409.71
310.94	409.68
310.97	409.66
311.01	409.67
311.04	409.7
311.07	409.72
311.11	409.74
311.14	409.74
311.17	409.75
311.21	409.76
311.24	409.76
311.27	409.76
311.31	409.77
311.34	409.78
311.37	409.77
311.41	409.76
311.44	409.75
311.47	409.72
311.51	409.63
311.54	409.54
311.57	409.5
311.61	409.47
311.64	409.45
311.67	409.44
311.71	409.43
311.74	409.43
311.77	409.42
311.81	409.4
311.84	409.38
311.87	409.36
311.91	409.34
311.94	409.33
311.97	409.32
312.01	409.32
312.04	409.33
312.07	409.35
312.11	409.36
312.14	409.36
312.17	409.35
312.21	409.35
312.24	409.35
312.27	409.36
312.31	409.37
312.34	409.36
312.37	409.32
312.41	409.29
312.44	409.28
312.47	409.27
312.51	409.28
312.54	409.28
312.57	409.28
312.6	409.28
312.64	409.28
312.67	409.28
312.71	409.29
312.74	409.3
312.77	409.3
312.81	409.29
312.84	409.26
312.87	409.24
312.91	409.23
312.94	409.2
312.97	409.13
313.01	409.06
313.04	409.03
313.07	409.03
313.11	409.03
313.14	409.03
313.17	409.02
313.21	408.97
313.24	408.88
313.27	408.79
313.31	408.74
313.34	408.73
313.37	408.74
313.41	408.75
313.44	408.76
313.47	408.76
313.51	408.76
313.54	408.76
313.57	408.76
313.61	408.76
313.64	408.75
313.67	408.73
313.71	408.73
313.74	408.75
313.77	408.77
313.81	408.78
313.84	408.76
313.87	408.72
313.9	408.66
313.94	408.61
313.97	408.59
314.01	408.58
314.04	408.59
314.07	408.6
314.11	408.6
314.14	408.58
314.17	408.53
314.21	408.45
314.24	408.38
314.27	408.34
314.31	408.33
314.34	408.33
314.37	408.34
314.41	408.36
314.44	408.37
314.47	408.35
314.5	408.3
314.54	408.27
314.57	408.26
314.6	408.27
314.64	408.27
314.67	408.27
314.71	408.27
314.74	408.28
314.77	408.3
314.8	408.32
314.84	408.34
314.87	408.34
314.91	408.33
314.94	408.31
314.97	408.3
315.01	408.29
315.04	408.28
315.07	408.28
315.11	408.27
315.14	408.26
315.17	408.25
315.2	408.23
315.24	408.21
315.27	408.19
315.3	408.18
315.34	408.18
315.37	408.19
315.4	408.21
315.44	408.22
315.47	408.21
315.5	408.2
315.54	408.2
315.57	408.21
315.6	408.22
315.64	408.23
315.67	408.24
315.7	408.25
315.74	408.26
315.77	408.27
315.8	408.28
315.84	408.29
315.87	408.31
315.9	408.31
315.94	408.3
315.97	408.28
316.01	408.27
316.04	408.27
316.07	408.28
316.1	408.28
316.14	408.27
316.17	408.26
316.2	408.25
316.24	408.25
316.27	408.24
316.31	408.23
316.34	408.2
316.37	408.13
316.41	408.06
316.44	408.03
316.47	408.02
316.5	408
316.54	407.99
316.57	407.97
316.6	407.96
316.64	407.94
316.67	407.93
316.7	407.9
316.74	407.88
316.77	407.86
316.8	407.85
316.84	407.84
316.87	407.84
316.9	407.85
316.94	407.85
316.97	407.86
317	407.87
317.04	407.87
317.07	407.88
317.11	407.88
317.14	407.88
317.17	407.88
317.21	407.88
317.24	407.89
317.27	407.91
317.3	407.93
317.34	407.93
317.37	407.93
317.4	407.92
317.44	407.9
317.47	407.86
317.5	407.81
317.54	407.8
317.57	407.8
317.6	407.8
317.64	407.82
317.67	407.83
317.7	407.83
317.74	407.83
317.77	407.82
317.8	407.81
317.84	407.79
317.87	407.77
317.9	407.74
317.94	407.73
317.97	407.73
318	407.73
318.04	407.73
318.07	407.73
318.1	407.73
318.14	407.72
318.17	407.68
318.2	407.62
318.24	407.58
318.27	407.54
318.3	407.52
318.34	407.53
318.37	407.55
318.4	407.59
318.44	407.61
318.47	407.63
318.5	407.66
318.54	407.69
318.57	407.71
318.6	407.71
318.64	407.7
318.67	407.67
318.7	407.66
318.74	407.65
318.77	407.65
318.8	407.64
318.84	407.61
318.87	407.58
318.9	407.55
318.94	407.51
318.97	407.47
319	407.45
319.04	407.44
319.07	407.43
319.1	407.42
319.14	407.41
319.17	407.4
319.2	407.4
319.24	407.4
319.27	407.4
319.3	407.4
319.34	407.37
319.37	407.33
319.4	407.32
319.44	407.33
319.47	407.36
319.5	407.38
319.54	407.39
319.57	407.4
319.6	407.41
319.63	407.45
319.67	407.51
319.7	407.54
319.73	407.55
319.77	407.55
319.8	407.54
319.83	407.53
319.87	407.54
319.9	407.56
319.93	407.6
319.97	407.65
320	407.67
320.03	407.66
320.07	407.63
320.1	407.61
320.13	407.6
320.17	407.59
320.2	407.58
320.23	407.56
320.27	407.55
320.3	407.54
320.33	407.52
320.37	407.47
320.4	407.4
320.43	407.32
320.47	407.25
320.5	407.21
320.53	407.2
320.57	407.2
320.6	407.21
320.63	407.22
320.67	407.22
320.7	407.22
320.73	407.22
320.77	407.23
320.8	407.24
320.83	407.26
320.87	407.29
320.9	407.31
320.93	407.33
320.97	407.33
321	407.32
321.03	407.31
321.07	407.3
321.1	407.31
321.13	407.33
321.17	407.36
321.2	407.38
321.23	407.38
321.27	407.38
321.3	407.38
321.33	407.38
321.36	407.38
321.4	407.37
321.43	407.35
321.47	407.32
321.5	407.27
321.53	407.25
321.57	407.26
321.6	407.27
321.63	407.28
321.67	407.28
321.7	407.27
321.73	407.27
321.77	407.28
321.8	407.28
321.83	407.29
321.87	407.28
321.9	407.26
321.93	407.23
321.97	407.21
322	407.19
322.03	407.17
322.07	407.15
322.1	407.12
322.13	407.1
322.17	407.09
322.2	407.08
322.23	407.09
322.27	407.09
322.3	407.11
322.33	407.13
322.37	407.13
322.4	407.13
322.43	407.11
322.47	407.08
322.5	407.05
322.53	407.02
322.57	407.02
322.6	407.03
322.63	407.04
322.67	407.05
322.7	407.05
322.73	407.04
322.77	407.03
322.8	407.02
322.83	407.03
322.87	407.04
322.9	407.05
322.93	407.05
322.97	407.03
323	407.01
323.03	407
323.07	407.01
323.1	407.02
323.13	407.06
323.17	407.1
323.2	407.14
323.23	407.16
323.27	407.15
323.3	407.11
323.33	407.06
323.37	407.01
323.4	406.99
323.43	406.97
323.47	406.94
323.5	406.89
323.53	406.86
323.57	406.84
323.6	406.82
323.63	406.8
323.66	406.77
323.7	406.74
323.73	406.72
323.77	406.71
323.8	406.7
323.83	406.69
323.86	406.69
323.9	406.69
323.93	406.69
323.97	406.71
324	406.73
324.03	406.75
324.07	406.77
324.1	406.78
324.13	406.78
324.16	406.78
324.2	406.78
324.23	406.79
324.27	406.8
324.3	406.81
324.33	406.8
324.37	406.8
324.4	406.8
324.43	406.82
324.46	406.82
324.5	406.79
324.53	406.75
324.57	406.71
324.6	406.69
324.63	406.68
324.66	406.67
324.7	406.67
324.73	406.67
324.76	406.66
324.8	406.65
324.83	406.64
324.87	406.64
324.9	406.64
324.93	406.64
324.96	406.64
325	406.64
325.03	406.65
325.06	406.65
325.1	406.64
325.13	406.65
325.17	406.7
325.2	406.76
325.23	406.79
325.26	406.78
325.3	406.75
325.33	406.74
325.36	406.75
325.4	406.76
325.43	406.75
325.46	406.68
325.5	406.57
325.53	406.47
325.56	406.4
325.6	406.37
325.63	406.34
325.66	406.3
325.7	406.27
325.73	406.25
325.76	406.25
325.8	406.25
325.83	406.23
325.86	406.21
325.9	406.19
325.93	406.18
325.96	406.18
326	406.19
326.03	406.2
326.06	406.19
326.1	406.18
326.13	406.16
326.16	406.16
326.2	406.16
326.23	406.16
326.26	406.16
326.3	406.15
326.33	406.14
326.36	406.13
326.4	406.12
326.43	406.11
326.46	406.09
326.5	406.06
326.53	406.01
326.56	405.98
326.6	405.96
326.63	405.96
326.66	405.97
326.7	405.96
326.73	405.93
326.76	405.89
326.8	405.86
326.83	405.85
326.86	405.86
326.9	405.88
326.93	405.88
326.96	405.87
327	405.85
327.03	405.82
327.06	405.8
327.1	405.78
327.13	405.75
327.16	405.73
327.2	405.69
327.23	405.65
327.26	405.62
327.3	405.59
327.33	405.57
327.36	405.54
327.4	405.52
327.43	405.49
327.46	405.47
327.5	405.48
327.53	405.49
327.56	405.49
327.6	405.49
327.63	405.49
327.66	405.49
327.7	405.5
327.73	405.5
327.76	405.53
327.79	405.56
327.83	405.57
327.86	405.57
327.89	405.58
327.93	405.59
327.96	405.61
327.99	405.6
328.03	405.57
328.06	405.52
328.09	405.5
328.13	405.49
328.16	405.48
328.19	405.44
328.23	405.36
328.26	405.3
328.29	405.3
328.33	405.32
328.36	405.33
328.39	405.32
328.43	405.33
328.46	405.35
328.5	405.39
328.53	405.41
328.56	405.41
328.6	405.42
328.63	405.43
328.66	405.47
328.69	405.5
328.73	405.52
328.76	405.51
328.79	405.49
328.83	405.49
328.86	405.49
328.89	405.49
328.93	405.48
328.96	405.46
328.99	405.43
329.03	405.39
329.06	405.37
329.09	405.35
329.13	405.33
329.16	405.32
329.2	405.3
329.23	405.28
329.26	405.26
329.29	405.24
329.33	405.22
329.36	405.21
329.4	405.2
329.43	405.19
329.46	405.18
329.49	405.17
329.53	405.15
329.56	405.12
329.59	405.11
329.63	405.11
329.66	405.12
329.69	405.14
329.73	405.15
329.76	405.17
329.79	405.19
329.83	405.2
329.86	405.21
329.89	405.2
329.93	405.2
329.96	405.21
329.99	405.22
330.03	405.23
330.06	405.25
330.09	405.25
330.13	405.24
330.16	405.22
330.19	405.21
330.23	405.22
330.26	405.24
330.29	405.26
330.33	405.27
330.36	405.26
330.39	405.24
330.43	405.22
330.46	405.18
330.49	405.15
330.53	405.13
330.56	405.11
330.59	405.09
330.63	405.08
330.66	405.07
330.69	405.05
330.73	405.02
330.76	404.96
330.79	404.89
330.83	404.86
330.86	404.86
330.89	404.87
330.93	404.87
330.96	404.86
330.99	404.84
331.03	404.82
331.06	404.82
331.09	404.83
331.13	404.83
331.16	404.82
331.19	404.82
331.23	404.82
331.26	404.84
331.29	404.88
331.32	404.91
331.36	404.92
331.39	404.92
331.43	404.92
331.46	404.92
331.49	404.93
331.53	404.92
331.56	404.91
331.59	404.9
331.63	404.89
331.66	404.89
331.69	404.88
331.72	404.86
331.76	404.84
331.79	404.83
331.82	404.82
331.86	404.82
331.89	404.82
331.93	404.81
331.96	404.79
331.99	404.76
332.02	404.74
332.06	404.74
332.09	404.74
332.12	404.75
332.16	404.77
332.19	404.79
332.22	404.8
332.26	404.79
332.29	404.76
332.33	404.74
332.36	404.74
332.39	404.77
332.42	404.81
332.46	404.84
332.49	404.85
332.52	404.83
332.56	404.79
332.59	404.76
332.63	404.75
332.66	404.76
332.69	404.77
332.72	404.78
332.76	404.75
332.79	404.71
332.82	404.68
332.86	404.68
332.89	404.69
332.92	404.71
332.96	404.72
332.99	404.72
333.02	404.69
333.06	404.67
333.09	404.66
333.12	404.67
333.16	404.68
333.19	404.68
333.22	404.67
333.26	404.66
333.29	404.64
333.32	404.63
333.36	404.62
333.39	404.63
333.42	404.64
333.46	404.65
333.49	404.66
333.52	404.65
333.56	404.64
333.59	404.64
333.62	404.64
333.66	404.65
333.69	404.65
333.72	404.65
333.76	404.64
333.79	404.65
333.82	404.66
333.86	404.67
333.89	404.67
333.92	404.66
333.96	404.65
333.99	404.64
334.02	404.63
334.06	404.62
334.09	404.62
334.12	404.62
334.16	404.61
334.19	404.56
334.22	404.5
334.26	404.46
334.29	404.44
334.32	404.44
334.36	404.44
334.39	404.45
334.42	404.46
334.46	404.47
334.49	404.46
334.52	404.45
334.56	404.44
334.59	404.43
334.62	404.41
334.66	404.41
334.69	404.43
334.72	404.49
334.75	404.54
334.79	404.56
334.82	404.56
334.86	404.54
334.89	404.52
334.92	404.51
334.96	404.5
334.99	404.49
335.02	404.49
335.06	404.5
335.09	404.51
335.12	404.53
335.15	404.54
335.19	404.56
335.22	404.56
335.25	404.55
335.29	404.53
335.32	404.52
335.36	404.53
335.39	404.54
335.42	404.54
335.45	404.54
335.49	404.53
335.52	404.54
335.55	404.55
335.59	404.56
335.62	404.58
335.65	404.59
335.69	404.59
335.72	404.58
335.75	404.56
335.79	404.55
335.82	404.56
335.85	404.55
335.89	404.52
335.92	404.5
335.95	404.49
335.99	404.48
336.02	404.47
336.05	404.47
336.09	404.47
336.12	404.46
336.15	404.44
336.19	404.41
336.22	404.38
336.26	404.38
336.29	404.39
336.32	404.39
336.35	404.38
336.39	404.36
336.42	404.35
336.46	404.36
336.49	404.37
336.52	404.39
336.55	404.4
336.59	404.41
336.62	404.38
336.65	404.35
336.69	404.33
336.72	404.33
336.75	404.34
336.79	404.36
336.82	404.38
336.85	404.39
336.89	404.4
336.92	404.4
336.95	404.4
336.99	404.41
337.02	404.42
337.05	404.42
337.09	404.43
337.12	404.43
337.15	404.42
337.19	404.41
337.22	404.38
337.25	404.36
337.29	404.36
337.32	404.34
337.35	404.32
337.39	404.28
337.42	404.2
337.45	404.16
337.49	404.13
337.52	404.13
337.55	404.16
337.59	404.22
337.62	404.24
337.65	404.23
337.69	404.19
337.72	404.14
337.75	404.13
337.79	404.1
337.82	404.06
337.85	404.04
337.89	404.02
337.92	404
337.95	404
337.99	404
338.02	404
338.05	404
338.09	403.98
338.12	403.97
338.15	403.97
338.19	403.96
338.22	403.96
338.25	403.96
338.29	403.97
338.32	403.99
338.35	404
338.39	404.02
338.42	404.07
338.45	404.12
338.49	404.15
338.52	404.16
338.55	404.18
338.59	404.19
338.62	404.21
338.65	404.21
338.69	404.22
338.72	404.23
338.75	404.24
338.79	404.24
338.82	404.23
338.85	404.22
338.88	404.2
338.92	404.19
338.95	404.17
338.99	404.16
339.02	404.16
339.05	404.15
339.09	404.15
339.12	404.16
339.15	404.17
339.19	404.18
339.22	404.18
339.25	404.17
339.29	404.17
339.32	404.17
339.35	404.19
339.39	404.21
339.42	404.23
339.45	404.24
339.48	404.22
339.52	404.19
339.55	404.17
339.59	404.19
339.62	404.25
339.65	404.32
339.68	404.34
339.72	404.32
339.75	404.28
339.78	404.25
339.82	404.24
339.85	404.24
339.89	404.26
339.92	404.28
339.95	404.3
339.98	404.31
340.02	404.32
340.05	404.3
340.09	404.25
340.12	404.19
340.15	404.15
340.18	404.16
340.22	404.18
340.25	404.19
340.28	404.19
340.32	404.18
340.35	404.17
340.39	404.16
340.42	404.16
340.45	404.16
340.48	404.16
340.52	404.16
340.55	404.16
340.58	404.17
340.62	404.18
340.65	404.18
340.68	404.19
340.72	404.2
340.75	404.21
340.78	404.22
340.82	404.24
340.85	404.24
340.88	404.26
340.92	404.27
340.95	404.28
340.98	404.3
341.02	404.3
341.05	404.31
341.08	404.32
341.12	404.32
341.15	404.33
341.18	404.33
341.22	404.33
341.25	404.33
341.28	404.34
341.31	404.34
341.35	404.35
341.38	404.35
341.42	404.34
341.45	404.34
341.48	404.35
341.52	404.36
341.55	404.38
341.58	404.39
341.62	404.39
341.65	404.39
341.68	404.38
341.72	404.37
341.75	404.37
341.78	404.36
341.82	404.36
341.85	404.36
341.88	404.34
341.92	404.32
341.95	404.29
341.98	404.27
342.02	404.25
342.05	404.25
342.08	404.26
342.12	404.27
342.15	404.27
342.18	404.26
342.22	404.23
342.25	404.22
342.28	404.21
342.32	404.21
342.35	404.21
342.38	404.21
342.42	404.2
342.45	404.19
342.48	404.19
342.52	404.19
342.55	404.19
342.58	404.19
342.62	404.18
342.65	404.17
342.68	404.14
342.72	404.11
342.75	404.1
342.78	404.1
342.81	404.11
342.85	404.11
342.88	404.12
342.92	404.12
342.95	404.13
342.98	404.14
343.02	404.14
343.05	404.12
343.08	404.13
343.11	404.15
343.15	404.18
343.18	404.21
343.21	404.21
343.25	404.21
343.28	404.21
343.31	404.21
343.35	404.23
343.38	404.25
343.41	404.26
343.45	404.26
343.48	404.25
343.51	404.25
343.55	404.24
343.58	404.25
343.61	404.24
343.65	404.21
343.68	404.2
343.72	404.18
343.75	404.18
343.78	404.2
343.81	404.23
343.85	404.23
343.88	404.23
343.91	404.22
343.95	404.21
343.98	404.2
344.01	404.2
344.05	404.19
344.08	404.18
344.11	404.17
344.15	404.14
344.18	404.1
344.21	404.08
344.25	404.08
344.28	404.08
344.31	404.08
344.35	404.06
344.38	404.04
344.41	404.03
344.45	404.02
344.48	404.02
344.51	404.02
344.55	404.01
344.58	404.01
344.61	404.01
344.65	404
344.68	404
344.71	403.99
344.75	403.99
344.78	404
344.81	404
344.85	403.99
344.88	404
344.91	404.01
344.95	404.03
344.98	404.06
345.01	404.07
345.05	404.08
345.08	404.08
345.11	404.09
345.14	404.08
345.18	404.08
345.21	404.08
345.25	404.08
345.28	404.08
345.31	404.08
345.34	404.08
345.38	404.07
345.41	404.07
345.45	404.07
345.48	404.07
345.51	404.06
345.55	404.03
345.58	403.94
345.61	403.83
345.65	403.77
345.68	403.76
345.71	403.76
345.74	403.77
345.78	403.76
345.81	403.75
345.84	403.73
345.88	403.72
345.91	403.71
345.95	403.7
345.98	403.71
346.01	403.74
346.04	403.76
346.08	403.79
346.11	403.81
346.14	403.81
346.18	403.81
346.21	403.8
346.24	403.8
346.28	403.8
346.31	403.8
346.34	403.8
346.38	403.8
346.41	403.8
346.44	403.79
346.48	403.79
346.51	403.79
346.54	403.79
346.58	403.79
346.61	403.74
346.64	403.66
346.68	403.61
346.71	403.59
346.74	403.6
346.78	403.61
346.81	403.61
346.84	403.62
346.88	403.63
346.91	403.64
346.94	403.65
346.98	403.67
347.01	403.68
347.04	403.69
347.08	403.69
347.11	403.7
347.14	403.72
347.18	403.74
347.21	403.75
347.24	403.74
347.28	403.74
347.31	403.75
347.34	403.77
347.38	403.78
347.41	403.77
347.44	403.76
347.48	403.74
347.51	403.75
347.54	403.75
347.58	403.75
347.61	403.75
347.64	403.74
347.68	403.74
347.71	403.73
347.74	403.71
347.78	403.69
347.81	403.67
347.84	403.67
347.87	403.67
347.91	403.65
347.94	403.63
347.98	403.61
348.01	403.59
348.04	403.57
348.08	403.56
348.11	403.55
348.14	403.54
348.18	403.55
348.21	403.53
348.24	403.5
348.27	403.49
348.31	403.5
348.34	403.52
348.38	403.52
348.41	403.52
348.44	403.52
348.47	403.5
348.51	403.49
348.54	403.5
348.57	403.5
348.61	403.5
348.64	403.52
348.68	403.53
348.71	403.55
348.74	403.56
348.77	403.58
348.81	403.6
348.84	403.63
348.87	403.66
348.91	403.67
348.94	403.66
348.97	403.65
349.01	403.63
349.04	403.62
349.07	403.62
349.11	403.64
349.14	403.65
349.17	403.64
349.21	403.59
349.24	403.51
349.27	403.46
349.31	403.44
349.34	403.4
349.37	403.37
349.41	403.34
349.44	403.32
349.47	403.31
349.51	403.29
349.54	403.25
349.57	403.21
349.61	403.18
349.64	403.15
349.67	403.12
349.71	403.13
349.74	403.14
349.77	403.16
349.81	403.2
349.84	403.24
349.87	403.28
349.91	403.3
349.94	403.32
349.97	403.34
350.01	403.36
350.04	403.37
350.07	403.36
350.11	403.33
350.14	403.31
350.17	403.31
350.21	403.31
350.24	403.33
350.27	403.35
350.31	403.35
350.34	403.36
350.37	403.35
350.41	403.34
350.44	403.33
350.47	403.31
350.51	403.31
350.54	403.32
350.57	403.33
350.61	403.35
350.64	403.34
350.67	403.33
350.71	403.32
350.74	403.32
350.77	403.32
350.81	403.32
350.84	403.32
350.87	403.31
350.91	403.31
350.94	403.3
350.97	403.3
351.01	403.29
351.04	403.29
351.07	403.29
351.1	403.29
351.14	403.29
351.17	403.25
351.21	403.19
351.24	403.15
351.27	403.15
351.31	403.18
351.34	403.21
351.37	403.24
351.4	403.25
351.44	403.26
351.47	403.26
351.51	403.25
351.54	403.26
351.57	403.26
351.61	403.25
351.64	403.25
351.67	403.24
351.7	403.23
351.74	403.22
351.77	403.23
351.8	403.24
351.84	403.25
351.87	403.26
351.9	403.25
351.94	403.24
351.97	403.25
352	403.26
352.04	403.27
352.07	403.26
352.1	403.23
352.14	403.21
352.17	403.19
352.21	403.18
352.24	403.18
352.27	403.21
352.3	403.25
352.34	403.31
352.37	403.35
352.4	403.34
352.44	403.31
352.47	403.28
352.5	403.25
352.54	403.23
352.57	403.22
352.6	403.22
352.64	403.23
352.67	403.23
352.7	403.23
352.74	403.22
352.77	403.2
352.8	403.16
352.84	403.07
352.87	402.99
352.9	402.98
352.94	402.99
352.97	403.01
353	403.02
353.04	403.01
353.07	403
353.1	402.98
353.14	402.97
353.17	402.95
353.2	402.94
353.24	402.93
353.27	402.92
353.3	402.93
353.34	402.96
353.37	402.99
353.4	403.02
353.44	403.05
353.47	403.05
353.5	403.01
353.54	402.96
353.57	402.93
353.6	402.96
353.64	403.03
353.67	403.09
353.7	403.13
353.74	403.15
353.77	403.14
353.8	403.14
353.84	403.11
353.87	403.09
353.9	403.08
353.94	403.07
353.97	403.06
354	403.05
354.04	403.04
354.07	403.03
354.1	403.03
354.14	403.04
354.17	403.04
354.2	403.03
354.24	403.03
354.27	403.04
354.3	403.06
354.34	403.08
354.37	403.08
354.4	403.07
354.43	403.06
354.47	403.05
354.5	403.05
354.53	403.06
354.57	403.07
354.6	403.07
354.63	403.06
354.67	403.03
354.7	403.01
354.74	403.01
354.77	403.02
354.8	403.03
354.83	403.04
354.87	403.02
354.9	402.97
354.93	402.87
354.97	402.8
355	402.79
355.03	402.8
355.07	402.81
355.1	402.81
355.13	402.81
355.17	402.82
355.2	402.82
355.23	402.83
355.27	402.83
355.3	402.85
355.33	402.88
355.37	402.93
355.4	402.96
355.43	402.98
355.47	402.98
355.5	402.96
355.53	402.95
355.57	402.96
355.6	402.98
355.63	403.01
355.67	403.04
355.7	403.04
355.73	403.05
355.77	403.04
355.8	403.04
355.83	403.03
355.87	403.02
355.9	403.02
355.93	403.03
355.96	403.04
356	403.06
356.03	403.07
356.07	403.08
356.1	403.07
356.13	403.07
356.17	403.07
356.2	403.08
356.23	403.1
356.26	403.1
356.3	403.1
356.33	403.08
356.37	403.08
356.4	403.09
356.43	403.11
356.47	403.14
356.5	403.16
356.53	403.16
356.57	403.14
356.6	403.12
356.63	403.13
356.67	403.14
356.7	403.15
356.73	403.16
356.76	403.17
356.8	403.17
356.83	403.15
356.87	403.11
356.9	403.07
356.93	403.04
356.97	403.03
357	403.02
357.03	403.01
357.06	403
357.1	402.98
357.13	402.97
357.16	402.97
357.2	402.96
357.23	402.96
357.26	402.95
357.3	402.96
357.33	402.98
357.36	402.98
357.4	402.97
357.43	402.96
357.46	402.96
357.5	402.96
357.53	402.98
357.56	403
357.6	403.01
357.63	403.02
357.66	403.03
357.7	403.03
357.73	403.04
357.76	403.05
357.8	403.05
357.83	403.04
357.86	403
357.9	402.96
357.93	402.93
357.96	402.93
358	402.94
358.03	402.94
358.06	402.93
358.1	402.91
358.13	402.9
358.16	402.89
358.2	402.89
358.23	402.88
358.26	402.88
358.3	402.89
358.33	402.9
358.36	402.93
358.4	402.96
358.43	402.98
358.46	402.99
358.5	402.98
358.53	402.95
358.56	402.92
358.6	402.91
358.63	402.9
358.66	402.92
358.69	402.94
358.73	402.96
358.76	402.97
358.8	402.99
358.83	403.01
358.86	403.03
358.9	403.06
358.93	403.1
358.96	403.14
359	403.15
359.03	403.15
359.06	403.11
359.09	403.07
359.13	403.06
359.16	403.06
359.19	403.04
359.23	403.01
359.26	402.98
359.29	402.97
359.33	402.96
359.36	402.95
359.39	402.93
359.43	402.88
359.46	402.85
359.49	402.84
359.53	402.83
359.56	402.82
359.59	402.82
359.63	402.82
359.66	402.84
359.7	402.88
359.73	402.91
359.76	402.93
359.79	402.95
359.83	402.97
359.86	403
359.89	403.02
359.93	403.04
359.96	403.05
359.99	403.06
360.03	403.07
360.06	403.1
360.09	403.12
360.13	403.13
360.16	403.13
360.19	403.11
360.23	403.09
360.26	403.08
360.29	403.08
360.33	403.07
360.36	403.01
360.39	402.95
360.43	402.92
360.46	402.9
360.49	402.89
360.53	402.88
360.56	402.87
360.59	402.86
360.63	402.86
360.66	402.85
360.69	402.82
360.73	402.74
360.76	402.65
360.79	402.61
360.83	402.6
360.86	402.62
360.89	402.64
360.93	402.65
360.96	402.65
360.99	402.6
361.03	402.54
361.06	402.53
361.09	402.54
361.13	402.57
361.16	402.61
361.19	402.65
361.23	402.68
361.26	402.7
361.29	402.7
361.33	402.7
361.36	402.69
361.39	402.7
361.42	402.73
361.46	402.76
361.49	402.77
361.53	402.76
361.56	402.73
361.59	402.7
361.63	402.68
361.66	402.68
361.69	402.69
361.73	402.69
361.76	402.68
361.79	402.67
361.82	402.65
361.86	402.61
361.89	402.53
361.93	402.44
361.96	402.38
361.99	402.37
362.02	402.37
362.06	402.34
362.09	402.28
362.13	402.2
362.16	402.14
362.19	402.1
362.22	402.09
362.26	402.08
362.29	402.07
362.32	402.07
362.36	402.08
362.39	402.11
362.42	402.15
362.46	402.18
362.49	402.2
362.52	402.21
362.56	402.21
362.59	402.22
362.62	402.23
362.66	402.24
362.69	402.23
362.72	402.22
362.76	402.21
362.79	402.21
362.82	402.21
362.86	402.21
362.89	402.2
362.92	402.2
362.96	402.22
362.99	402.24
363.02	402.27
363.06	402.29
363.09	402.3
363.12	402.3
363.16	402.28
363.19	402.26
363.22	402.27
363.26	402.29
363.29	402.31
363.32	402.34
363.36	402.34
363.39	402.34
363.42	402.35
363.46	402.35
363.49	402.35
363.52	402.35
363.56	402.34
363.59	402.33
363.62	402.32
363.65	402.31
363.69	402.28
363.72	402.26
363.76	402.25
363.79	402.26
363.82	402.28
363.85	402.3
363.89	402.3
363.92	402.29
363.95	402.27
363.99	402.26
364.02	402.26
364.05	402.25
364.09	402.23
364.12	402.22
364.16	402.22
364.19	402.24
364.22	402.26
364.25	402.29
364.29	402.31
364.32	402.31
364.35	402.32
364.39	402.35
364.42	402.36
364.45	402.38
364.49	402.39
364.52	402.4
364.55	402.4
364.59	402.39
364.62	402.38
364.65	402.36
364.69	402.35
364.72	402.35
364.75	402.36
364.79	402.35
364.82	402.33
364.85	402.31
364.89	402.3
364.92	402.3
364.95	402.3
364.99	402.3
365.02	402.3
365.05	402.32
365.09	402.32
365.12	402.31
365.15	402.3
365.19	402.29
365.22	402.29
365.25	402.29
365.29	402.3
365.32	402.31
365.35	402.33
365.39	402.35
365.42	402.37
365.45	402.38
365.49	402.39
365.52	402.41
365.55	402.44
365.59	402.46
365.62	402.47
365.65	402.46
365.69	402.45
365.72	402.44
365.75	402.44
365.79	402.43
365.82	402.42
365.85	402.41
365.89	402.4
365.92	402.4
365.95	402.4
365.98	402.4
366.02	402.39
366.05	402.38
366.08	402.39
366.12	402.4
366.15	402.41
366.18	402.41
366.22	402.42
366.25	402.43
366.28	402.41
366.32	402.36
366.35	402.32
366.38	402.3
366.42	402.3
366.45	402.31
366.48	402.32
366.52	402.31
366.55	402.3
366.58	402.29
366.62	402.27
366.65	402.24
366.68	402.19
366.72	402.15
366.75	402.15
366.78	402.16
366.82	402.16
366.85	402.16
366.88	402.15
366.92	402.14
366.95	402.14
366.98	402.15
367.02	402.15
367.05	402.14
367.08	402.12
367.12	402.11
367.15	402.11
367.18	402.11
367.22	402.12
367.25	402.13
367.28	402.13
367.32	402.13
367.35	402.14
367.38	402.16
367.42	402.17
367.45	402.17
367.48	402.17
367.52	402.18
367.55	402.2
367.58	402.22
367.62	402.24
367.65	402.26
367.68	402.27
367.72	402.28
367.75	402.28
367.78	402.27
367.82	402.27
367.85	402.28
367.88	402.3
367.92	402.31
367.95	402.32
367.98	402.32
368.02	402.32
368.05	402.33
368.08	402.33
368.11	402.34
368.15	402.36
368.18	402.36
368.21	402.36
368.25	402.34
368.28	402.3
368.31	402.28
368.35	402.27
368.38	402.26
368.41	402.24
368.45	402.22
368.48	402.19
368.51	402.18
368.55	402.17
368.58	402.17
368.61	402.17
368.65	402.14
368.68	402.09
368.71	402.01
368.75	401.98
368.78	401.99
368.81	402.01
368.85	402.03
368.88	402.05
368.91	402.06
368.95	402.08
368.98	402.09
369.01	402.09
369.05	402.1
369.08	402.1
369.11	402.09
369.15	402.08
369.18	402.06
369.21	402.03
369.25	402.02
369.28	402.01
369.31	402.01
369.35	402.01
369.38	402.01
369.41	402.02
369.45	402.02
369.48	402.01
369.51	401.99
369.55	401.97
369.58	401.94
369.61	401.91
369.65	401.9
369.68	401.9
369.71	401.92
369.75	401.94
369.78	401.96
369.81	401.99
369.85	402
369.88	402
369.91	402
369.95	401.98
369.98	401.96
370.01	401.94
370.04	401.93
370.08	401.93
370.11	401.93
370.15	401.92
370.18	401.91
370.21	401.9
370.25	401.9
370.28	401.91
370.31	401.92
370.34	401.93
370.38	401.94
370.41	401.96
370.44	401.98
370.48	402
370.51	402.02
370.54	402.02
370.58	402.03
370.61	402.03
370.64	402.03
370.68	402.02
370.71	402.01
370.74	401.99
370.78	401.99
370.81	401.98
370.84	401.97
370.88	401.95
370.91	401.93
370.94	401.9
370.98	401.87
371.01	401.85
371.04	401.84
371.08	401.84
371.11	401.84
371.14	401.84
371.18	401.85
371.21	401.87
371.24	401.87
371.28	401.87
371.31	401.86
371.34	401.86
371.38	401.88
371.41	401.92
371.44	401.96
371.48	401.97
371.51	402.01
371.54	402.16
371.58	402.33
371.61	402.41
371.64	402.43
371.68	402.41
371.71	402.41
371.74	402.42
371.77	402.44
371.81	402.45
371.84	402.45
371.88	402.45
371.91	402.45
371.94	402.44
371.97	402.44
372.01	402.41
372.04	402.37
372.07	402.35
372.11	402.35
372.14	402.38
372.17	402.41
372.21	402.43
372.24	402.43
372.28	402.41
372.31	402.4
372.34	402.4
372.37	402.38
372.41	402.3
372.44	402.21
372.47	402.17
372.51	402.18
372.54	402.2
372.57	402.23
372.61	402.24
372.64	402.24
372.67	402.23
372.71	402.23
372.74	402.24
372.77	402.25
372.81	402.26
372.84	402.26
372.87	402.24
372.91	402.22
372.94	402.2
372.97	402.2
373.01	402.19
373.04	402.17
373.07	402.15
373.11	402.13
373.14	402.12
373.17	402.09
373.21	402.03
373.24	401.96
373.27	401.91
373.31	401.91
373.34	401.91
373.37	401.92
373.41	401.94
373.44	401.95
373.47	401.94
373.51	401.93
373.54	401.93
373.57	401.95
373.61	401.96
373.64	401.96
373.67	401.95
373.71	401.94
373.74	401.94
373.77	401.96
373.8	401.97
373.84	401.97
373.87	401.95
373.91	401.93
373.94	401.91
373.97	401.9
374	401.9
374.04	401.89
374.07	401.87
374.11	401.86
374.14	401.85
374.17	401.83
374.2	401.83
374.24	401.82
374.27	401.81
374.3	401.8
374.34	401.8
374.37	401.78
374.41	401.75
374.44	401.74
374.47	401.75
374.5	401.75
374.54	401.72
374.57	401.68
374.6	401.69
374.64	401.7
374.67	401.71
374.7	401.72
374.74	401.72
374.77	401.71
374.8	401.7
374.84	401.7
374.87	401.71
374.9	401.71
374.94	401.71
374.97	401.71
375	401.71
375.03	401.71
375.07	401.72
375.1	401.73
375.14	401.73
375.17	401.73
375.2	401.74
375.24	401.76
375.27	401.78
375.3	401.79
375.34	401.78
375.37	401.78
375.4	401.78
375.44	401.8
375.47	401.82
375.5	401.85
375.53	401.85
375.57	401.85
375.6	401.84
375.64	401.83
375.67	401.84
375.7	401.85
375.73	401.86
375.77	401.85
375.8	401.8
375.84	401.76
375.87	401.74
375.9	401.75
375.93	401.75
375.97	401.74
376	401.73
376.03	401.71
376.07	401.68
376.1	401.66
376.13	401.65
376.17	401.63
376.2	401.6
376.23	401.59
376.27	401.58
376.3	401.58
376.33	401.57
376.37	401.55
376.4	401.52
376.43	401.5
376.47	401.48
376.5	401.47
376.53	401.45
376.57	401.43
376.6	401.4
376.63	401.37
376.67	401.35
376.7	401.32
376.73	401.26
376.77	401.24
376.8	401.25
376.83	401.27
376.87	401.29
376.9	401.3
376.93	401.28
376.97	401.26
377	401.25
377.03	401.26
377.07	401.29
377.1	401.31
377.13	401.32
377.16	401.3
377.2	401.28
377.23	401.26
377.26	401.24
377.3	401.24
377.33	401.25
377.36	401.27
377.4	401.29
377.43	401.31
377.46	401.3
377.5	401.29
377.53	401.28
377.56	401.27
377.6	401.27
377.63	401.27
377.66	401.26
377.7	401.26
377.73	401.26
377.76	401.28
377.8	401.3
377.83	401.31
377.86	401.32
377.9	401.32
377.93	401.32
377.96	401.33
378	401.34
378.03	401.34
378.06	401.34
378.1	401.35
378.13	401.35
378.16	401.34
378.2	401.34
378.23	401.35
378.26	401.34
378.3	401.34
378.33	401.32
378.36	401.3
378.4	401.29
378.43	401.29
378.46	401.3
378.5	401.29
378.53	401.27
378.56	401.24
378.59	401.21
378.63	401.2
378.66	401.2
378.69	401.21
378.73	401.22
378.76	401.23
378.8	401.23
378.83	401.23
378.86	401.24
378.89	401.27
378.93	401.3
378.96	401.33
378.99	401.35
379.03	401.37
379.06	401.37
379.09	401.35
379.13	401.29
379.16	401.21
379.19	401.16
379.23	401.15
379.26	401.16
379.29	401.17
379.33	401.19
379.36	401.2
379.39	401.2
379.43	401.19
379.46	401.16
379.49	401.15
379.53	401.15
379.56	401.16
379.59	401.17
379.63	401.16
379.66	401.14
379.69	401.12
379.73	401.09
379.76	401.06
379.79	401.04
379.83	401.04
379.86	401.06
379.89	401.08
379.93	401.1
379.96	401.09
379.99	401.07
380.03	401.06
380.06	401.06
380.09	401.06
380.12	401.07
380.16	401.08
380.19	401.08
380.22	401.09
380.26	401.09
380.29	401.1
380.32	401.11
380.36	401.11
380.39	401.1
380.42	401.08
380.46	401.07
380.49	401.04
380.52	401.01
380.56	401
380.59	401
380.62	401.03
380.66	401.05
380.69	401.08
380.72	401.09
380.76	401.1
380.79	401.1
380.82	401.07
380.86	401.03
380.89	400.99
380.92	400.97
380.96	400.97
380.99	400.97
381.02	400.97
381.05	400.96
381.09	400.95
381.12	400.94
381.16	400.93
381.19	400.92
381.22	400.91
381.26	400.91
381.29	400.91
381.32	400.9
381.35	400.88
381.39	400.88
381.42	400.89
381.45	400.91
381.49	400.93
381.52	400.92
381.55	400.88
381.59	400.83
381.62	400.82
381.65	400.83
381.69	400.83
381.72	400.81
381.75	400.78
381.79	400.73
381.82	400.68
381.85	400.66
381.89	400.63
381.92	400.57
381.95	400.53
381.99	400.52
382.02	400.51
382.05	400.52
382.09	400.52
382.12	400.47
382.15	400.42
382.19	400.39
382.22	400.37
382.25	400.35
382.29	400.33
382.32	400.31
382.35	400.31
382.38	400.31
382.42	400.31
382.45	400.32
382.49	400.32
382.52	400.33
382.55	400.34
382.59	400.36
382.62	400.37
382.65	400.39
382.69	400.42
382.72	400.44
382.75	400.45
382.78	400.47
382.82	400.48
382.85	400.5
382.88	400.51
382.92	400.51
382.95	400.51
382.98	400.51
383.02	400.52
383.05	400.52
383.08	400.52
383.12	400.51
383.15	400.49
383.18	400.47
383.22	400.45
383.25	400.44
383.28	400.43
383.32	400.45
383.35	400.47
383.38	400.5
383.42	400.51
383.45	400.49
383.48	400.45
383.52	400.43
383.55	400.44
383.58	400.46
383.62	400.48
383.65	400.49
383.68	400.48
383.72	400.49
383.75	400.49
383.78	400.5
383.81	400.51
383.85	400.51
383.88	400.51
383.91	400.52
383.95	400.53
383.98	400.54
384.01	400.55
384.05	400.55
384.08	400.55
384.11	400.54
384.15	400.54
384.18	400.54
384.21	400.54
384.25	400.54
384.28	400.55
384.31	400.56
384.35	400.58
384.38	400.6
384.41	400.63
384.45	400.66
384.48	400.66
384.51	400.64
384.54	400.61
384.58	400.59
384.61	400.56
384.65	400.53
384.68	400.51
384.71	400.5
384.74	400.5
384.78	400.5
384.81	400.51
384.84	400.53
384.88	400.56
384.91	400.57
384.95	400.57
384.98	400.58
385.01	400.58
385.04	400.59
385.08	400.6
385.11	400.6
385.14	400.59
385.18	400.59
385.21	400.58
385.24	400.56
385.28	400.52
385.31	400.45
385.34	400.4
385.38	400.38
385.41	400.37
385.44	400.36
385.48	400.34
385.51	400.33
385.54	400.32
385.58	400.29
385.61	400.25
385.64	400.19
385.68	400.09
385.71	400
385.74	399.97
385.78	399.98
385.81	400.01
385.84	400.04
385.87	400.07
385.91	400.09
385.94	400.11
385.97	400.11
386.01	400.13
386.04	400.15
386.07	400.17
386.11	400.18
386.14	400.19
386.17	400.2
386.21	400.22
386.24	400.24
386.27	400.25
386.3	400.24
386.34	400.24
386.37	400.24
386.4	400.24
386.44	400.24
386.47	400.23
386.51	400.23
386.54	400.23
386.57	400.24
386.6	400.25
386.64	400.24
386.67	400.24
386.71	400.23
386.74	400.22
386.77	400.21
386.8	400.2
386.84	400.2
386.87	400.21
386.9	400.21
386.94	400.21
386.97	400.21
387	400.21
387.04	400.2
387.07	400.2
387.1	400.19
387.14	400.17
387.17	400.17
387.2	400.15
387.24	400.15
387.27	400.14
387.3	400.12
387.34	400.1
387.37	400.06
387.4	399.99
387.44	399.93
387.47	399.9
387.5	399.88
387.54	399.86
387.57	399.84
387.6	399.81
387.64	399.78
387.67	399.77
387.7	399.77
387.73	399.77
387.77	399.77
387.8	399.77
387.83	399.77
387.87	399.77
387.9	399.75
387.93	399.75
387.97	399.76
388	399.78
388.03	399.82
388.07	399.85
388.1	399.86
388.13	399.86
388.17	399.85
388.2	399.83
388.23	399.83
388.27	399.83
388.3	399.83
388.33	399.84
388.37	399.85
388.4	399.88
388.43	399.91
388.47	399.93
388.5	399.95
388.53	399.97
388.56	399.98
388.6	399.98
388.63	399.98
388.66	399.99
388.7	399.99
388.73	399.98
388.76	399.95
388.8	399.93
388.83	399.92
388.86	399.9
388.9	399.89
388.93	399.88
388.96	399.87
389	399.86
389.03	399.84
389.06	399.82
389.1	399.83
389.13	399.85
389.16	399.84
389.2	399.81
389.23	399.8
389.26	399.8
389.3	399.8
389.33	399.8
389.36	399.78
389.39	399.74
389.43	399.7
389.46	399.69
389.49	399.69
389.53	399.71
389.56	399.73
389.59	399.75
389.63	399.77
389.66	399.79
389.69	399.8
389.73	399.83
389.76	399.86
389.79	399.88
389.83	399.91
389.86	399.92
389.89	399.94
389.93	399.99
389.96	400.05
389.99	400.1
390.02	400.14
390.06	400.16
390.09	400.17
390.12	400.19
390.16	400.22
390.19	400.28
390.22	400.34
390.26	400.38
390.29	400.41
390.32	400.43
390.36	400.44
390.39	400.43
390.42	400.37
390.46	400.25
390.49	400.19
390.52	400.18
390.55	400.19
390.59	400.2
390.62	400.2
390.66	400.18
390.69	400.11
390.72	400.08
390.76	400.06
390.79	400.05
390.82	400.05
390.85	400.06
390.89	400.04
390.92	400.02
390.95	400
390.99	399.99
391.02	400.02
391.05	400.05
391.09	400.06
391.12	400.03
391.15	399.93
391.19	399.8
391.22	399.77
391.25	399.8
391.28	399.84
391.32	399.89
391.35	399.92
391.38	399.88
391.42	399.83
391.45	399.86
391.48	399.95
391.52	400.09
391.55	400.21
391.58	400.27
391.61	400.33
391.65	400.37
391.68	400.4
391.71	400.44
391.75	400.48
391.78	400.53
391.81	400.6
391.85	400.65
391.88	400.69
391.91	400.7
391.95	400.7
391.98	400.71
392.01	400.72
392.05	400.73
392.08	400.73
392.11	400.73
392.14	400.72
392.18	400.7
392.21	400.64
392.25	400.59
392.28	400.58
392.31	400.59
392.34	400.62
392.38	400.64
392.41	400.66
392.44	400.67
392.48	400.68
392.51	400.69
392.54	400.69
392.58	400.69
392.61	400.66
392.64	400.52
392.68	400.34
392.71	400.29
392.74	400.3
392.77	400.31
392.81	400.34
392.84	400.33
392.87	400.3
392.91	400.29
392.94	400.27
392.97	400.25
393.01	400.26
393.04	400.29
393.07	400.33
393.11	400.36
393.14	400.4
393.17	400.44
393.21	400.48
393.24	400.53
393.27	400.57
393.3	400.62
393.34	400.67
393.37	400.71
393.4	400.75
393.44	400.78
393.47	400.82
393.5	400.86
393.54	400.9
393.57	400.94
393.6	400.98
393.63	401.02
393.67	401.05
393.7	401.11
393.73	401.21
393.77	401.29
393.8	401.36
393.83	401.41
393.87	401.44
393.9	401.41
393.93	401.18
393.97	400.85
394	400.77
394.03	400.89
394.06	401.02
394.1	401.14
394.13	401.28
394.16	401.43
394.2	401.5
394.23	401.52
394.26	401.57
394.3	401.63
394.33	401.68
394.36	401.78
394.4	401.86
394.43	401.86
394.46	401.74
394.49	401.55
394.53	401.31
394.56	401.08
394.59	400.98
394.63	400.93
394.66	400.81
394.69	400.63
394.73	400.42
394.76	400.28
394.79	400.18
394.82	399.94
394.86	399.59
394.89	399.27
394.92	399.09
394.96	399.06
394.99	399.15
395.02	399.33
395.06	399.49
395.09	399.57
395.12	399.63
395.15	399.68
395.19	399.73
395.22	399.8
395.25	399.86
395.29	399.91
395.32	399.96
395.35	400.03
395.38	400.13
395.42	400.16
395.45	400.11
395.48	400.05
395.52	399.99
395.55	399.91
395.58	399.89
395.62	399.96
395.65	400.15
395.68	400.42
395.71	400.71
395.75	400.89
395.78	400.9
395.81	400.89
395.85	400.97
395.88	401.09
395.91	401.17
395.95	401.2
395.98	401.25
396.01	401.39
396.04	401.57
396.08	401.68
396.11	401.71
396.14	401.69
396.17	401.75
396.21	401.91
396.24	402.09
396.27	402.21
396.31	402.18
396.34	402.02
396.37	401.84
396.4	401.72
396.44	401.58
396.47	401.42
396.5	401.34
396.54	401.31
396.57	401.23
396.6	401.16
396.63	401.16
396.67	401.17
396.7	401.11
396.73	400.93
396.77	400.53
396.8	400.06
396.83	399.79
396.86	399.78
396.9	399.88
396.93	399.9
396.96	399.82
397	399.68
397.03	399.58
397.06	399.47
397.09	399.28
397.13	398.97
397.16	398.56
397.19	398.23
397.22	398.21
397.26	398.38
397.29	398.55
397.32	398.67
397.36	398.77
397.39	398.89
397.42	399.05
397.45	399.29
397.49	399.56
397.52	399.8
397.55	399.95
397.58	400.02
397.62	400.1
397.65	400.24
397.68	400.53
397.71	400.88
397.75	401.11
397.78	401.29
397.81	401.57
397.85	401.97
397.88	402.38
397.91	402.59
397.94	402.52
397.98	402.32
398.01	402.12
398.04	402.02
398.07	402.07
398.11	402.23
398.14	402.46
398.17	402.65
398.2	402.64
398.24	402.43
398.27	402.26
398.3	402.22
398.34	402.3
398.37	402.49
398.4	402.64
398.43	402.66
398.47	402.56
398.5	402.42
398.53	402.38
398.56	402.47
398.6	402.58
398.63	402.55
398.66	402.2
398.69	401.68
398.73	401.19
398.76	400.67
398.79	400.17
398.82	399.72
398.86	399.47
398.89	399.74
398.92	400.31
398.95	400.67
398.99	400.79
399.02	400.61
399.05	400.1
399.08	399.83
399.12	400.01
399.15	400.32
399.18	400.77
399.21	401.12
399.24	401
399.28	400.51
399.31	399.74
399.34	399.15
399.37	399.19
399.4	399.61
399.44	400
399.47	400.23
399.5	400.28
399.53	400.22
399.57	399.95
399.6	399.19
399.63	398.19
399.66	397.64
399.69	397.79
399.73	398.37
399.76	399.12
399.79	399.41
399.82	399.35
399.85	399.51
399.89	399.62
399.92	399.68
399.95	399.88
399.98	399.72
400.01	399.37
400.04	399.21
400.08	398.98
400.11	399.02
400.14	399.35
400.17	399.68
400.2	399.76
400.24	399.05
400.27	398.21
400.3	397.38
400.33	396.88
400.36	396.89
400.39	396.73
400.42	396.04
400.46	395.16
400.49	394.7
400.52	394.32
400.55	394.11
400.58	393.82
400.61	393.01
400.64	163.7